TRANSMISSION%TAU_TOTAL = (
  0.113717E-007  0.694553E-008  0.623870E-008  0.289915E-009  0.780437E-009  0.163637E-007  0.351981E-009  0.256939E-001  0.103933       0.552808     
  0.535470       0.692190E-003  0.791608       0.697106       0.682161E-008  0.308902E-008  0.321393E-008  0.473707E-010  0.156181E-009  0.715745E-008
  0.185137E-009  0.163602E-001  0.103530       0.573678       0.488928       0.163583E-003  0.784857       0.687203       0.743778E-007  0.397490E-007
  0.425922E-007  0.134048E-008  0.313798E-008  0.110060E-006  0.846247E-008  0.610151E-001  0.481068       0.899347       0.643538       0.236413E-003
  0.899486       0.834972       0.578514E-008  0.140565E-008  0.148226E-008  0.405138E-011  0.194982E-010  0.435088E-008  0.167157E-009  0.151394E-001
  0.147144       0.646254       0.491491       0.555755E-004  0.795728       0.700241       0.152366E-005  0.134388E-005  0.143511E-005  0.116272E-005
  0.103958E-005  0.867413E-006  0.592840E-006  0.204933       0.782363       0.975183       0.746722       0.398457E-002  0.962219       0.930707     
  0.710443E-008  0.261428E-009  0.311269E-009  0.728416E-013  0.788087E-012  0.198611E-008  0.787432E-010  0.107466E-001  0.196854       0.744542     
  0.536746       0.796221E-005  0.811418       0.720977     
 )
TRANSMISSION%TAU_LAYERS = (
   1.00000        1.00000        1.00000        1.00000        1.00000        1.00000        1.00000        1.00000        1.00000        1.00000     
   1.00000        1.00000        1.00000        1.00000        1.00000        1.00000        1.00000        1.00000        1.00000        1.00000     
   1.00000        1.00000        1.00000        1.00000        1.00000        1.00000        1.00000        1.00000        1.00000        1.00000     
   1.00000        1.00000        1.00000        1.00000        1.00000        1.00000        1.00000        1.00000        1.00000        1.00000     
   1.00000        1.00000        1.00000        1.00000        1.00000        1.00000        1.00000        1.00000        1.00000        1.00000     
   1.00000        1.00000        1.00000        1.00000        1.00000        1.00000        1.00000        1.00000        1.00000        1.00000     
   1.00000        1.00000        1.00000        1.00000        1.00000        1.00000        1.00000        1.00000        1.00000        1.00000     
   1.00000        1.00000        1.00000        1.00000        1.00000        1.00000        1.00000        1.00000        1.00000        1.00000     
   1.00000        1.00000        1.00000        1.00000     
 
  0.999575       0.993839       0.989976       0.999420       0.999358       0.998074       0.998545       0.999996        1.00000        1.00000     
  0.999997       0.999862        1.00000        1.00000       0.999593       0.993630       0.990497       0.999458       0.999423       0.998143     
  0.998658       0.999997        1.00000        1.00000       0.999998       0.999881        1.00000        1.00000       0.999465       0.993702     
  0.988229       0.999245       0.999124       0.997798       0.998188       0.999994        1.00000        1.00000       0.999996       0.999797     
   1.00000        1.00000       0.999572       0.993292       0.990409       0.999439       0.999418       0.998127       0.998644       0.999997     
   1.00000        1.00000       0.999997       0.999880        1.00000        1.00000       0.999553       0.994620       0.988464       0.999324     
  0.999173       0.997833       0.998264       0.999993        1.00000        1.00000       0.999996       0.999820        1.00000        1.00000     
  0.999353       0.992595       0.988000       0.999136       0.999054       0.997752       0.998089       0.999993        1.00000        1.00000     
  0.999995       0.999769        1.00000        1.00000     
 
  0.998788       0.988880       0.985043       0.998528       0.998470       0.997143       0.997483       0.999987       0.999999        1.00000     
  0.999993       0.999572        1.00000        1.00000       0.998814       0.988394       0.985833       0.998582       0.998593       0.997294     
  0.997633       0.999989        1.00000        1.00000       0.999994       0.999611        1.00000        1.00000       0.998515       0.988772     
  0.982240       0.998183       0.997987       0.996585       0.997036       0.999980       0.999999        1.00000       0.999990       0.999411     
   1.00000        1.00000       0.998748       0.987711       0.985812       0.998530       0.998577       0.997296       0.997629       0.999989     
   1.00000        1.00000       0.999994       0.999603        1.00000        1.00000       0.998760       0.990569       0.982302       0.998351     
  0.998096       0.996581       0.997108       0.999980       0.999999        1.00000       0.999989       0.999484        1.00000        1.00000     
  0.998206       0.986607       0.982185       0.997946       0.997817       0.996541       0.996945       0.999979       0.999999        1.00000     
  0.999988       0.999334        1.00000        1.00000     
 
  0.997160       0.982087       0.978509       0.997066       0.996882       0.995669       0.996379       0.999966       0.999998        1.00000     
  0.999980       0.998950        1.00000        1.00000       0.997133       0.981188       0.979334       0.997078       0.996961       0.995840     
  0.996488       0.999968       0.999998        1.00000       0.999981       0.998984        1.00000        1.00000       0.996681       0.982035     
  0.974511       0.996626       0.996282       0.994802       0.995999       0.999952       0.999997        1.00000       0.999972       0.998676     
   1.00000        1.00000       0.996962       0.980010       0.979253       0.996968       0.996886       0.995817       0.996475       0.999967     
  0.999998        1.00000       0.999980       0.998950        1.00000        1.00000       0.997232       0.985206       0.974591       0.996929     
  0.996501       0.994828       0.996108       0.999952       0.999996        1.00000       0.999969       0.998837        1.00000        1.00000     
  0.996013       0.978319       0.974427       0.996243       0.995969       0.994691       0.995917       0.999949       0.999997        1.00000     
  0.999966       0.998519        1.00000        1.00000     
 
  0.994302       0.972559       0.967858       0.995127       0.994851       0.993189       0.995435       0.999921       0.999994        1.00000     
  0.999935       0.997893        1.00000        1.00000       0.994094       0.971160       0.967967       0.995033       0.994799       0.993202     
  0.995483       0.999920       0.999994        1.00000       0.999927       0.997867        1.00000        1.00000       0.993669       0.972473     
  0.963352       0.994685       0.994392       0.992252       0.995216       0.999900       0.999991        1.00000       0.999915       0.997553     
   1.00000        1.00000       0.993729       0.969378       0.967463       0.994845       0.994652       0.993080       0.995462       0.999917     
  0.999994        1.00000       0.999924       0.997785        1.00000        1.00000       0.994742       0.977504       0.964429       0.995223     
  0.994815       0.992546       0.995405       0.999905       0.999991        1.00000       0.999915       0.997871        1.00000        1.00000     
  0.992479       0.966860       0.962635       0.994106       0.993929       0.991959       0.995120       0.999892       0.999991        1.00000     
  0.999893       0.997278        1.00000        1.00000     
 
  0.989848       0.958979       0.950811       0.992504       0.992619       0.989545       0.994514       0.999828       0.999980        1.00000     
  0.999767       0.996301       0.999999        1.00000       0.989366       0.957015       0.949596       0.992251       0.992448       0.989304     
  0.994506       0.999817       0.999978        1.00000       0.999728       0.996171       0.999999        1.00000       0.989228       0.958775     
  0.947041       0.992128       0.992302       0.988817       0.994382       0.999803       0.999975        1.00000       0.999721       0.995981     
  0.999999        1.00000       0.988696       0.954572       0.947693       0.991894       0.992185       0.988926       0.994432       0.999806     
  0.999976        1.00000       0.999719       0.995972       0.999999        1.00000       0.991006       0.965940       0.950678       0.993039     
  0.993024       0.989643       0.994702       0.999825       0.999978        1.00000       0.999755       0.996541       0.999999        1.00000     
  0.987465       0.951200       0.944364       0.991238       0.991562       0.988090       0.994153       0.999779       0.999972        1.00000     
  0.999644       0.995512       0.999999        1.00000     
 
  0.984674       0.942341       0.927050       0.989390       0.989795       0.984904       0.992982       0.999667       0.999947       0.999999     
  0.999322       0.994342       0.999999       0.999999       0.983935       0.939806       0.923760       0.988956       0.989403       0.984347     
  0.992824       0.999637       0.999940       0.999999       0.999233       0.994065       0.999999       0.999999       0.984172       0.942051     
  0.924277       0.989108       0.989525       0.984396       0.992870       0.999638       0.999941       0.999999       0.999218       0.994088     
  0.999999       0.999999       0.982925       0.936680       0.918972       0.988359       0.988842       0.983555       0.992550       0.999603     
  0.999933       0.999999       0.999205       0.993666       0.999998       0.999999       0.986573       0.951190       0.932530       0.990453     
  0.990808       0.986010       0.993563       0.999699       0.999953       0.999999       0.999366       0.994999       0.999999        1.00000     
  0.981954       0.932618       0.917046       0.987814       0.988205       0.982855       0.992216       0.999573       0.999928       0.999999     
  0.999000       0.993298       0.999998       0.999999     
 
  0.979116       0.922137       0.892001       0.985631       0.985630       0.978718       0.989982       0.999391       0.999882       0.999998     
  0.998317       0.992014       0.999997       0.999999       0.978037       0.918952       0.885450       0.984928       0.984889       0.977768     
  0.989536       0.999327       0.999865       0.999998       0.998166       0.991550       0.999997       0.999999       0.978754       0.921821     
  0.890398       0.985435       0.985426       0.978362       0.989910       0.999354       0.999875       0.999998       0.998099       0.991842     
  0.999997       0.999999       0.976659       0.915004       0.877252       0.984035       0.983949       0.976570       0.988931       0.999256     
  0.999846       0.999998       0.998111       0.990963       0.999997       0.999999       0.981857       0.932971       0.907039       0.987425     
  0.987655       0.981128       0.991389       0.999503       0.999911       0.999999       0.998566       0.993264       0.999998       0.999999     
  0.975853       0.910103       0.875105       0.983447       0.983177       0.975622       0.988406       0.999192       0.999836       0.999998     
  0.997491       0.990614       0.999997       0.999999     
 
  0.972367       0.896228       0.841324       0.980394       0.979534       0.969873       0.984767       0.998914       0.999763       0.999997     
  0.996215       0.989248       0.999995       0.999998       0.970677       0.892118       0.830745       0.979239       0.978332       0.968338     
  0.983886       0.998790       0.999726       0.999996       0.995942       0.988582       0.999995       0.999998       0.972365       0.895846     
  0.842426       0.980399       0.979525       0.969745       0.984836       0.998866       0.999756       0.999997       0.995740       0.989251     
  0.999996       0.999998       0.968778       0.886954       0.819557       0.977940       0.977006       0.966606       0.982859       0.998671     
  0.999691       0.999995       0.995880       0.987857       0.999995       0.999998       0.976788       0.909772       0.870929       0.983576     
  0.983120       0.974260       0.987583       0.999189       0.999843       0.999998       0.997002       0.991294       0.999997       0.999999     
  0.967865       0.880541       0.815881       0.977067       0.975884       0.965023       0.981952       0.998491       0.999657       0.999996     
  0.994195       0.987454       0.999994       0.999998     
 
  0.963853       0.862605       0.777933       0.973121       0.971354       0.957472       0.977105       0.998154       0.999569       0.999994     
  0.992388       0.986288       0.999992       0.999997       0.961240       0.857149       0.762892       0.971336       0.969547       0.955013     
  0.975617       0.997944       0.999502       0.999993       0.991900       0.985433       0.999992       0.999997       0.964551       0.861896     
  0.783414       0.973508       0.971693       0.957774       0.977496       0.998088       0.999572       0.999995       0.991607       0.986571     
  0.999993       0.999997       0.958519       0.850174       0.748135       0.969458       0.967663       0.952360       0.973997       0.997755     
  0.999444       0.999992       0.991777       0.984531       0.999991       0.999997       0.971024       0.880227       0.824237       0.978406     
  0.976969       0.964882       0.981924       0.998699       0.999740       0.999997       0.994337       0.989203       0.999995       0.999998     
  0.957524       0.841012       0.744143       0.968244       0.966087       0.949957       0.972679       0.997364       0.999369       0.999992     
  0.988487       0.984090       0.999989       0.999996     
 
  0.952442       0.815777       0.700259       0.962938       0.959872       0.939649       0.966343       0.996927       0.999268       0.999990     
  0.986015       0.982877       0.999987       0.999994       0.948718       0.808390       0.680676       0.960414       0.957227       0.935896     
  0.964068       0.996614       0.999159       0.999988       0.985169       0.981924       0.999987       0.999995       0.954164       0.814184     
  0.711339       0.963879       0.960760       0.940810       0.967315       0.996880       0.999303       0.999992       0.985446       0.983576     
  0.999988       0.999995       0.944726       0.798958       0.660542       0.957680       0.954335       0.931723       0.961530       0.996318     
  0.999059       0.999985       0.984823       0.980702       0.999986       0.999995       0.963310       0.839363       0.764404       0.970934     
  0.968378       0.951665       0.973918       0.997940       0.999588       0.999995       0.990360       0.986836       0.999991       0.999996     
  0.943915       0.785185       0.658255       0.956160       0.952219       0.928577       0.959924       0.995648       0.998950       0.999987     
  0.980198       0.980164       0.999981       0.999992     
 
  0.937514       0.753088       0.609511       0.949251       0.943839       0.915462       0.952195       0.995073       0.998829       0.999981     
  0.977077       0.978676       0.999978       0.999991       0.932637       0.743159       0.586107       0.945875       0.940109       0.910141     
  0.948990       0.994631       0.998668       0.999978       0.975678       0.977812       0.999979       0.999992       0.940533       0.749961     
  0.626867       0.950918       0.945622       0.918205       0.954131       0.995214       0.998951       0.999984       0.977923       0.980019     
  0.999982       0.999992       0.927193       0.730660       0.560781       0.942054       0.935861       0.904058       0.945292       0.994215     
  0.998514       0.999973       0.974969       0.976224       0.999978       0.999992       0.952816       0.784327       0.691849       0.960578     
  0.956539       0.933835       0.963374       0.996884       0.999388       0.999990       0.985399       0.984060       0.999987       0.999993     
  0.926438       0.710875       0.559775       0.939967       0.932931       0.900261       0.943439       0.993264       0.998393       0.999975     
  0.970068       0.975250       0.999970       0.999987     
 
  0.917831       0.671504       0.504914       0.930358       0.921299       0.883425       0.933688       0.992391       0.998214       0.999963     
  0.965605       0.973125       0.999966       0.999985       0.911667       0.658558       0.478772       0.925849       0.916185       0.876289     
  0.929365       0.991808       0.997993       0.999957       0.963616       0.972567       0.999969       0.999987       0.922496       0.666329     
  0.528789       0.933001       0.924480       0.888747       0.937173       0.993041       0.998516       0.999967       0.969352       0.975468     
  0.999973       0.999987       0.904709       0.642360       0.450348       0.920655       0.910320       0.868143       0.924375       0.991299     
  0.997789       0.999950       0.962632       0.970647       0.999966       0.999987       0.938428       0.711799       0.604477       0.946173     
  0.939840       0.910042       0.949634       0.995480       0.999135       0.999978       0.979584       0.980511       0.999980       0.999990     
  0.903601       0.616296       0.449074       0.917422       0.906048       0.863665       0.922204       0.990100       0.997682       0.999950     
  0.958227       0.968792       0.999953       0.999978     
 
  0.892214       0.572665       0.391295       0.904302       0.890340       0.842736       0.910129       0.988782       0.997410       0.999926     
  0.951759       0.965878       0.999949       0.999976       0.884530       0.556794       0.364230       0.898321       0.883551       0.833669     
  0.904546       0.988152       0.997147       0.999916       0.949595       0.965779       0.999955       0.999980       0.898973       0.565492     
  0.420605       0.908106       0.895408       0.851732       0.915872       0.990328       0.998002       0.999931       0.959833       0.969655     
  0.999962       0.999980       0.875842       0.536981       0.335385       0.891352       0.875708       0.823377       0.898172       0.987624     
  0.996914       0.999903       0.948673       0.963527       0.999950       0.999979       0.919212       0.622361       0.503123       0.926135     
  0.916603       0.879362       0.932057       0.993699       0.998826       0.999953       0.972973       0.975853       0.999971       0.999984     
  0.873901       0.505941       0.332893       0.886176       0.869284       0.818089       0.895573       0.986154       0.996831       0.999899     
  0.944874       0.960538       0.999930       0.999966     
 
  0.859279       0.462455       0.277696       0.869066       0.848812       0.792937       0.881031       0.984233       0.996425       0.999857     
  0.935670       0.956775       0.999926       0.999964       0.849761       0.444457       0.252157       0.861255       0.840077       0.781935     
  0.874112       0.983786       0.996171       0.999840       0.934180       0.957140       0.999936       0.999971       0.868373       0.454220     
  0.308475       0.873843       0.855899       0.806237       0.889522       0.987051       0.997406       0.999865       0.949275       0.962255     
  0.999946       0.999971       0.838966       0.422088       0.225766       0.851979       0.829728       0.769370       0.866240       0.983314     
  0.995932       0.999819       0.933678       0.954503       0.999928       0.999968       0.894032       0.520278       0.392041       0.898441     
  0.884799       0.840926       0.909963       0.991520       0.998457       0.999906       0.965499       0.969763       0.999960       0.999976     
  0.835502       0.388704       0.221615       0.843756       0.819946       0.762846       0.862932       0.981438       0.995848       0.999804     
  0.930006       0.950257       0.999900       0.999948     
 
  0.817594       0.349364       0.175865       0.822655       0.794652       0.734045       0.846130       0.978816       0.995287       0.999744     
  0.917633       0.945657       0.999897       0.999948       0.805827       0.330723       0.154408       0.812566       0.783655       0.721064     
  0.837775       0.978811       0.995098       0.999716       0.917704       0.946353       0.999911       0.999958       0.828844       0.341715     
  0.202505       0.827783       0.803356       0.751396       0.857342       0.983166       0.996717       0.999754       0.937389       0.952885     
  0.999925       0.999958       0.792317       0.307905       0.132927       0.800293       0.770159       0.705955       0.828150       0.978463     
  0.994870       0.999679       0.917950       0.943160       0.999899       0.999953       0.861559       0.412135       0.280141       0.860994     
  0.842192       0.794096       0.882793       0.988912       0.998024       0.999828       0.956991       0.962013       0.999944       0.999966     
  0.786347       0.275875       0.127671       0.787664       0.755620       0.697476       0.823627       0.975938       0.994732       0.999648     
  0.913431       0.937542       0.999860       0.999925     
 
  0.765668       0.244047       0.965694E-001  0.763149       0.726510       0.666748       0.805413       0.972712       0.994049       0.999574     
  0.898379       0.932303       0.999859       0.999926       0.751061       0.226738       0.810512E-001  0.750216       0.712810       0.651557     
  0.795366       0.973208       0.993937       0.999528       0.900098       0.933154       0.999878       0.999940       0.778542       0.238504     
  0.115187       0.767771       0.735952       0.687053       0.818839       0.978575       0.995919       0.999587       0.923722       0.941214     
  0.999898       0.999940       0.733975       0.206187       0.660431E-001  0.734205       0.695536       0.633455       0.783521       0.972918     
  0.993703       0.999469       0.900828       0.929105       0.999862       0.999933       0.820356       0.306233       0.179213       0.811745     
  0.786746       0.738637       0.850176       0.985804       0.997520       0.999710       0.947173       0.952431       0.999924       0.999953     
  0.724408       0.179405       0.612802E-001  0.715931       0.675323       0.622541       0.777332       0.969577       0.993470       0.999410     
  0.894863       0.921937       0.999808       0.999893     
 
  0.702132       0.157081       0.448277E-001  0.689249       0.644660       0.592776       0.759208       0.966269       0.992794       0.999334     
  0.879222       0.916440       0.999812       0.999898       0.683927       0.142916       0.354764E-001  0.673022       0.627833       0.574880     
  0.746911       0.966951       0.992693       0.999264       0.881389       0.917255       0.999837       0.999917       0.715670       0.154208     
  0.549069E-001  0.692561       0.653591       0.614003       0.773765       0.973185       0.994995       0.999351       0.908028       0.926820     
  0.999863       0.999917       0.662482       0.126641       0.269667E-001  0.652849       0.606583       0.553584       0.732350       0.966474     
  0.992396       0.999173       0.881682       0.912002       0.999816       0.999907       0.768865       0.212253       0.998721E-001  0.748988     
  0.717288       0.674880       0.811891       0.982091       0.996932       0.999544       0.935741       0.940737       0.999900       0.999936     
  0.648374       0.107116       0.239024E-001  0.628178       0.580774       0.540244       0.724254       0.962258       0.992052       0.999075     
  0.874131       0.903001       0.999743       0.999853     
 
  0.625617       0.932394E-001  0.173491E-001  0.600379       0.550886       0.514134       0.707621       0.959820       0.991601       0.999013     
  0.861406       0.897546       0.999753       0.999863       0.603097       0.829756E-001  0.128375E-001  0.580952       0.531003       0.492970     
  0.692228       0.960095       0.991383       0.998909       0.862048       0.898102       0.999785       0.999886       0.638559       0.923612E-001
  0.213548E-001  0.601987       0.558122       0.533743       0.721836       0.966973       0.993945       0.999033       0.890463       0.909099     
  0.999817       0.999887       0.576960       0.714860E-001  0.912462E-002  0.556845       0.506439       0.468870       0.674626       0.959112     
  0.990954       0.998774       0.860902       0.891275       0.999758       0.999873       0.704865       0.137094       0.466551E-001  0.671406     
  0.633616       0.602898       0.767208       0.977641       0.996238       0.999319       0.922413       0.926262       0.999868       0.999914     
  0.557763       0.587670E-001  0.771232E-002  0.525847       0.476274       0.453552       0.664595       0.953954       0.990486       0.998624     
  0.851588       0.880100       0.999660       0.999801     
 
  0.536000       0.510260E-001  0.587242E-002  0.498214       0.449622       0.433527       0.650901       0.953613       0.990528       0.998612     
  0.845982       0.875141       0.999679       0.999816       0.508942       0.443389E-001  0.418096E-002  0.476649       0.427739       0.408888     
  0.631521       0.952847       0.990062       0.998464       0.843164       0.875102       0.999715       0.999845       0.547030       0.510599E-001
  0.700090E-002  0.498381       0.454477       0.449096       0.663190       0.959987       0.992789       0.998633       0.871566       0.887457     
  0.999755       0.999846       0.478587       0.370287E-001  0.294167E-002  0.449664       0.401427       0.382903       0.610839       0.950886     
  0.989410       0.998276       0.839167       0.866285       0.999683       0.999830       0.626752       0.824794E-001  0.177936E-001  0.579432     
  0.538047       0.523824       0.715591       0.972376       0.995427       0.999036       0.907197       0.908285       0.999826       0.999886     
  0.454472       0.294754E-001  0.243747E-002  0.413720       0.369271       0.366301       0.598945       0.944787       0.988820       0.998060     
  0.828194       0.852639       0.999554       0.999734     
 
  0.438164       0.260313E-001  0.210229E-002  0.390309       0.350054       0.356037       0.591283       0.947898       0.989635       0.998169     
  0.833810       0.849624       0.999589       0.999756       0.407265       0.220800E-001  0.155578E-002  0.368745       0.328052       0.328003     
  0.567053       0.945444       0.988798       0.997972       0.825778       0.848308       0.999626       0.999791       0.446123       0.262803E-001
  0.233484E-002  0.390105       0.352627       0.365639       0.599973       0.952428       0.991580       0.998190       0.852301       0.861963     
  0.999674       0.999792       0.374079       0.178841E-001  0.119755E-002  0.340973       0.302151       0.300921       0.543172       0.942068     
  0.987838       0.997723       0.817784       0.837035       0.999590       0.999774       0.537202       0.466366E-001  0.596952E-002  0.478715     
  0.438381       0.442523       0.658697       0.966410       0.994526       0.998722       0.890685       0.886822       0.999773       0.999850     
  0.346689       0.137487E-001  0.102492E-002  0.302946       0.270746       0.284219       0.530024       0.935180       0.987161       0.997435     
  0.805684       0.820901       0.999422       0.999649     
 
  0.336464       0.123424E-001  0.953317E-003  0.283083       0.257470       0.283095       0.529359       0.942442       0.988893       0.997720     
  0.824157       0.820724       0.999480       0.999681       0.303421       0.102726E-001  0.759875E-003  0.264386       0.237514       0.251928     
  0.499244       0.937660       0.987572       0.997471       0.809531       0.816796       0.999512       0.999721       0.340566       0.125576E-001
  0.974903E-003  0.284231       0.258738       0.285593       0.532572       0.944364       0.990354       0.997737       0.833461       0.831682     
  0.999571       0.999724       0.269720       0.814540E-002  0.638127E-003  0.238660       0.214143       0.224464       0.471802       0.932718     
  0.986272       0.997159       0.797718       0.802591       0.999471       0.999703       0.438394       0.245081E-001  0.210468E-002  0.374133     
  0.340506       0.361473       0.596734       0.959773       0.993557       0.998401       0.873470       0.861089       0.999705       0.999804     
  0.241947       0.611211E-002  0.555778E-003  0.202174       0.185507       0.208886       0.458383       0.925090       0.985534       0.996797     
  0.784465       0.784192       0.999257       0.999541     
 
  0.237985       0.559950E-002  0.527296E-003  0.185298       0.176049       0.215758       0.466026       0.937076       0.988279       0.997314     
  0.816607       0.788263       0.999352       0.999588       0.205715       0.463404E-002  0.440636E-003  0.172011       0.160036       0.182576     
  0.429182       0.929456       0.986411       0.997014       0.794973       0.779858       0.999371       0.999632       0.238249       0.573761E-002
  0.515456E-003  0.189251       0.177499       0.211173       0.461813       0.935923       0.989166       0.997324       0.816243       0.795784     
  0.999442       0.999639       0.174800       0.366463E-002  0.362291E-003  0.151004       0.140686       0.156030       0.398067       0.922816     
  0.984756       0.996643       0.779905       0.762186       0.999319       0.999612       0.335406       0.119583E-001  0.948422E-003  0.272837     
  0.250535       0.283249       0.530292       0.952686       0.992581       0.998108       0.857003       0.830311       0.999619       0.999747     
  0.150001       0.273318E-002  0.304011E-003  0.119880       0.116187       0.142388       0.384937       0.914425       0.983961       0.996215     
  0.765099       0.741915       0.999054       0.999408     
 
  0.153235       0.260088E-002  0.290271E-003  0.107662       0.110345       0.156830       0.403816       0.931963       0.987815       0.997000     
  0.811620       0.753167       0.999207       0.999477       0.125203       0.216835E-002  0.246151E-003  0.100414       0.990947E-001  0.123968     
  0.360266       0.921095       0.985384       0.996657       0.783376       0.738341       0.999205       0.999527       0.150757       0.268996E-002
  0.285700E-003  0.114247       0.112900       0.146632       0.390914       0.927172       0.988054       0.997001       0.801310       0.755003     
  0.999290       0.999538       0.100261       0.172904E-002  0.188717E-003  0.854316E-001  0.843961E-001  0.100200       0.326018       0.912314     
  0.983319       0.996238       0.764670       0.716929       0.999132       0.999501       0.238393       0.569682E-002  0.528421E-003  0.184756     
  0.174624       0.212079       0.462235       0.945410       0.991664       0.997879       0.842631       0.795081       0.999515       0.999679     
  0.811330E-001  0.126916E-002  0.147847E-003  0.622886E-001  0.651269E-001  0.891386E-001  0.313369       0.903308       0.982494       0.995761     
  0.748444       0.695302       0.998815       0.999251     
 
  0.867496E-001  0.121453E-002  0.138519E-003  0.531301E-001  0.606607E-001  0.106414       0.341915       0.926738       0.987457       0.996767     
  0.808675       0.714643       0.999041       0.999345       0.658019E-001  0.102089E-002  0.116902E-003  0.505059E-001  0.539225E-001  0.770316E-001
  0.292751       0.912123       0.984451       0.996391       0.774326       0.691816       0.999009       0.999402       0.832280E-001  0.127875E-002
  0.141208E-003  0.603897E-001  0.640510E-001  0.933082E-001  0.320242       0.917572       0.986969       0.996759       0.788016       0.708873     
  0.999108       0.999419       0.487411E-001  0.811610E-003  0.837768E-004  0.414193E-001  0.440288E-001  0.580053E-001  0.256581       0.900571     
  0.981898       0.995934       0.751297       0.666746       0.998905       0.999365       0.153309       0.273646E-002  0.296795E-003  0.113385     
  0.112560       0.148709       0.392611       0.937545       0.990774       0.997708       0.829863       0.754955       0.999389       0.999596     
  0.364801E-001  0.560117E-003  0.591712E-004  0.269507E-001  0.308578E-001  0.500061E-001  0.244669       0.891185       0.981089       0.995421     
  0.734104       0.644080       0.998532       0.999066     
 
  0.423712E-001  0.545881E-003  0.557677E-004  0.221560E-001  0.286895E-001  0.665083E-001  0.280987       0.920762       0.987130       0.996595     
  0.806840       0.672387       0.998849       0.999194       0.293863E-001  0.457124E-003  0.464378E-004  0.215116E-001  0.251417E-001  0.437880E-001
  0.229900       0.902069       0.983547       0.996194       0.766546       0.642221       0.998783       0.999257       0.395094E-001  0.591445E-003
  0.598859E-004  0.275326E-001  0.316971E-001  0.543532E-001  0.253736       0.906939       0.985901       0.996580       0.776153       0.659479     
  0.998897       0.999282       0.197471E-001  0.354100E-003  0.310485E-004  0.168745E-001  0.194318E-001  0.304802E-001  0.193774       0.887333     
  0.980471       0.995706       0.739240       0.614043       0.998638       0.999206       0.882767E-001  0.135872E-002  0.153035E-003  0.625243E-001
  0.661855E-001  0.972351E-001  0.325036       0.928982       0.989913       0.997580       0.818597       0.711502       0.999240       0.999501     
  0.133814E-001  0.218721E-003  0.190709E-004  0.947268E-002  0.119819E-001  0.253754E-001  0.183028       0.877952       0.979758       0.995168     
  0.722243       0.590474       0.998207       0.998853     
 
  0.169923E-001  0.217113E-003  0.181509E-004  0.762141E-002  0.112173E-001  0.370800E-001  0.220123       0.912860       0.986727       0.996449     
  0.805234       0.624319       0.998618       0.999019       0.106486E-001  0.177562E-003  0.146870E-004  0.736773E-002  0.951090E-002  0.225446E-001
  0.172608       0.890213       0.982595       0.996026       0.759008       0.589849       0.998521       0.999088       0.154585E-001  0.244055E-003
  0.206908E-004  0.103284E-001  0.130118E-001  0.286596E-001  0.192622       0.894627       0.984790       0.996427       0.764754       0.607271     
  0.998651       0.999123       0.634358E-002  0.131119E-003  0.907642E-005  0.545792E-002  0.684250E-002  0.145246E-001  0.138817       0.871938     
  0.978977       0.995510       0.727771       0.559209       0.998325       0.999020       0.441178E-001  0.656131E-003  0.683937E-004  0.299378E-001
  0.341730E-001  0.584720E-001  0.260668       0.919416       0.989067       0.997472       0.808712       0.664996       0.999067       0.999389     
  0.379018E-002  0.695519E-004  0.463628E-005  0.252812E-002  0.356755E-002  0.116671E-001  0.129594       0.862902       0.978435       0.994953     
  0.712063       0.534832       0.997831       0.998604     
 
  0.547629E-002  0.738046E-004  0.472330E-005  0.215436E-002  0.357301E-002  0.185190E-001  0.163075       0.902295       0.986185       0.996307     
  0.803551       0.571606       0.998342       0.998820       0.308076E-002  0.572591E-004  0.362122E-005  0.197287E-002  0.283574E-002  0.107665E-001
  0.123626       0.876437       0.981596       0.995866       0.751772       0.536515       0.998223       0.998893       0.490720E-002  0.858170E-004
  0.570449E-005  0.311241E-002  0.431457E-002  0.139489E-001  0.139791       0.880424       0.983620       0.996281       0.753566       0.553977     
  0.998371       0.998944       0.159127E-002  0.396693E-004  0.205451E-005  0.135852E-002  0.186441E-002  0.650112E-002  0.940881E-001  0.854287     
  0.977423       0.995322       0.716961       0.504039       0.997966       0.998808       0.189017E-001  0.290904E-003  0.259274E-004  0.122318E-001
  0.151555E-001  0.325659E-001  0.202384       0.908843       0.988254       0.997368       0.800637       0.616886       0.998869       0.999262     
  0.816266E-003  0.173927E-004  0.833007E-006  0.492985E-003  0.786521E-003  0.505807E-002  0.865775E-001  0.845807       0.977095       0.994748     
  0.703211       0.478946       0.997405       0.998315     
 
  0.135657E-002  0.205214E-004  0.916830E-006  0.476737E-003  0.885016E-003  0.837379E-002  0.112657       0.888228       0.985437       0.996159     
  0.801759       0.515155       0.998008       0.998586       0.681669E-003  0.145222E-004  0.635583E-006  0.387181E-003  0.628261E-003  0.483142E-002
  0.833943E-001  0.860287       0.980527       0.995700       0.745306       0.482307       0.997878       0.998659       0.121256E-002  0.243259E-004
  0.115898E-005  0.709190E-003  0.109305E-002  0.635879E-002  0.959765E-001  0.864001       0.982392       0.996129       0.743003       0.499842     
  0.998051       0.998739       0.299423E-003  0.927403E-005  0.324931E-006  0.241527E-003  0.368024E-003  0.278568E-002  0.595519E-001  0.833889     
  0.975781       0.995128       0.706725       0.448787       0.997553       0.998563       0.671016E-002  0.111438E-003  0.799076E-005  0.408531E-002
  0.553132E-002  0.168323E-001  0.150990       0.896915       0.987460       0.997262       0.794277       0.567319       0.998642       0.999115     
  0.128799E-003  0.320739E-005  0.978568E-007  0.641609E-004  0.118897E-003  0.210586E-002  0.538300E-001  0.826092       0.975685       0.994536     
  0.695312       0.423101       0.996917       0.997964     
 
  0.259212E-003  0.463935E-005  0.979866E-007  0.810162E-004  0.167968E-003  0.355748E-002  0.720772E-001  0.870167       0.984398       0.996001     
  0.799898       0.457290       0.997606       0.998287       0.116266E-003  0.289496E-005  0.505173E-007  0.553805E-004  0.102425E-003  0.206675E-002
  0.521935E-001  0.840935       0.979261       0.995525       0.739870       0.427564       0.997467       0.998343       0.234537E-003  0.545370E-005
  0.126222E-006  0.118414E-003  0.206469E-003  0.280225E-002  0.622117E-001  0.845498       0.981144       0.995973       0.733979       0.446348     
  0.997689       0.998503       0.436695E-004  0.164274E-005  0.181158E-007  0.294953E-004  0.510954E-004  0.116237E-002  0.351054E-001  0.810837     
  0.974067       0.994926       0.697420       0.394902       0.997088       0.998278       0.196069E-002  0.360851E-004  0.223060E-005  0.109279E-002
  0.163064E-002  0.829965E-002  0.108143       0.883455       0.986660       0.997152       0.788933       0.517665       0.998386       0.998943     
  0.158180E-004  0.427106E-006  0.294118E-008  0.533657E-005  0.119180E-004  0.846960E-003  0.310288E-001  0.803730       0.974186       0.994316     
  0.688343       0.368817       0.996363       0.997530     
 
  0.386664E-004  0.817613E-006  0.475880E-007  0.989395E-005  0.230909E-004  0.142725E-002  0.418716E-001  0.847296       0.982877       0.995828     
  0.797996       0.399001       0.997107       0.997846       0.157416E-004  0.438283E-006  0.219255E-007  0.549759E-005  0.117072E-004  0.824042E-003
  0.293413E-001  0.816779       0.977437       0.995334       0.734866       0.371917       0.996934       0.997815       0.358603E-004  0.913109E-006
  0.615327E-007  0.134139E-004  0.272403E-004  0.118846E-002  0.375971E-001  0.824503       0.979841       0.995809       0.726591       0.393590     
  0.997273       0.998209       0.532044E-005  0.205888E-006  0.682219E-008  0.225615E-005  0.461492E-005  0.456330E-003  0.189961E-001  0.784783     
  0.972237       0.994716       0.689322       0.342476       0.996554       0.997920       0.458626E-003  0.947692E-005  0.154583E-005  0.221459E-003
  0.369970E-003  0.395422E-002  0.737185E-001  0.868022       0.985808       0.997037       0.783753       0.467986       0.998093       0.998730     
  0.173014E-005  0.387316E-007  0.876530E-009  0.260423E-006  0.733068E-006  0.312131E-003  0.162107E-001  0.777920       0.972495       0.994085     
  0.682409       0.315912       0.995718       0.996962     
 
  0.528133E-005  0.111719E-006  0.475722E-007  0.857402E-006  0.228717E-005  0.536610E-003  0.218061E-001  0.819364       0.980511       0.995626     
  0.796088       0.342309       0.996463       0.997125       0.206840E-005  0.480443E-007  0.219146E-007  0.372494E-006  0.933045E-006  0.301379E-003
  0.145605E-001  0.787526       0.974515       0.995107       0.730257       0.317415       0.996203       0.996851       0.499239E-005  0.114496E-006
  0.615047E-007  0.101308E-005  0.248433E-005  0.478512E-003  0.210841E-001  0.800823       0.978415       0.995629       0.720772       0.342522     
  0.996792       0.997824       0.688606E-006  0.163521E-007  0.681952E-008  0.103798E-006  0.265985E-006  0.164041E-003  0.942626E-002  0.755997     
  0.970223       0.994486       0.682935       0.292727       0.995935       0.997427       0.883381E-004  0.224595E-005  0.154506E-005  0.333331E-004
  0.638202E-004  0.184547E-002  0.478266E-001  0.850755       0.984915       0.996912       0.779033       0.419372       0.997763       0.998471     
  0.228004E-006  0.208249E-008  0.876315E-009  0.748154E-008  0.279772E-007  0.101241E-003  0.751502E-002  0.747768       0.970389       0.993827     
  0.677716       0.265099       0.994951       0.996193     
 
  0.846215E-006  0.588972E-007  0.475535E-007  0.215380E-007  0.133276E-006  0.180767E-003  0.979497E-002  0.785651       0.976578       0.995375     
  0.794145       0.287821       0.995579       0.995907       0.355425E-006  0.233094E-007  0.219030E-007  0.514788E-008  0.399541E-007  0.968217E-004
  0.614763E-002  0.752508       0.969772       0.994819       0.725991       0.264853       0.995182       0.995242       0.795275E-006  0.586932E-007
  0.614880E-007  0.216918E-007  0.129423E-006  0.173949E-003  0.106511E-001  0.773189       0.976680       0.995423       0.716098       0.292698     
  0.996219       0.997335       0.132335E-006  0.701583E-008  0.681768E-008  0.594047E-009  0.711179E-008  0.512578E-004  0.409599E-002  0.722856     
  0.967513       0.994220       0.677743       0.244950       0.995146       0.996645       0.147773E-004  0.145617E-005  0.154462E-005  0.370555E-005
  0.796683E-005  0.823087E-003  0.291605E-001  0.831237       0.983962       0.996774       0.775134       0.371632       0.997391       0.998169     
  0.542576E-007  0.779092E-009  0.876088E-009  0.153221E-010  0.437706E-009  0.277177E-004  0.294973E-002  0.711853       0.967337       0.993519     
  0.673888       0.216600       0.993979       0.995052     
 
  0.184899E-006  0.588024E-007  0.475223E-007  0.201215E-008  0.676337E-008  0.533783E-004  0.368167E-002  0.746077       0.970082       0.995044     
  0.792140       0.236854       0.994341       0.993910       0.908949E-007  0.232696E-007  0.218864E-007  0.295093E-009  0.128581E-008  0.269267E-004
  0.216708E-002  0.711731       0.962571       0.994444       0.721898       0.215742       0.993808       0.992855       0.173577E-006  0.586261E-007
  0.614751E-007  0.190271E-008  0.605334E-008  0.556356E-004  0.473764E-002  0.740885       0.974354       0.995186       0.712242       0.244989     
  0.995524       0.996714       0.435311E-007  0.700793E-008  0.681485E-008  0.173349E-010  0.120850E-009  0.136537E-004  0.147364E-002  0.684063     
  0.962946       0.993887       0.673193       0.199647       0.994032       0.995190       0.276889E-005  0.145437E-005  0.154436E-005  0.124845E-005
  0.133081E-005  0.342001E-003  0.165211E-001  0.808978       0.982887       0.996620       0.772278       0.325088       0.996967       0.997821     
  0.262812E-007  0.778419E-009  0.875672E-009  0.194814E-012  0.341098E-011  0.643143E-005  0.951469E-003  0.670090       0.962387       0.993137     
  0.670617       0.171966       0.992678       0.993182     
 
  0.122415E-006  0.586902E-007  0.474652E-007  0.200850E-008  0.490981E-008  0.140284E-004  0.116062E-002  0.701516       0.959994       0.994567     
  0.790066       0.191101       0.992638       0.990751       0.646821E-007  0.232267E-007  0.218600E-007  0.294548E-009  0.885911E-009  0.662735E-005
  0.647526E-003  0.666199       0.952447       0.993941       0.717955       0.171889       0.992041       0.989543       0.115149E-006  0.585791E-007
  0.614588E-007  0.190093E-008  0.436438E-008  0.158741E-004  0.185296E-002  0.704434       0.971018       0.994909       0.708979       0.201236     
  0.994681       0.995825       0.347674E-007  0.699822E-008  0.680862E-008  0.173109E-010  0.774792E-010  0.319270E-005  0.437215E-003  0.640373     
  0.955052       0.993426       0.669316       0.158707       0.992440       0.992477       0.166682E-005  0.145337E-005  0.154412E-005  0.124741E-005
  0.110989E-005  0.131079E-003  0.859642E-002  0.783577       0.981506       0.996443       0.770170       0.280709       0.996454       0.997366     
  0.241333E-007  0.777484E-009  0.874869E-009  0.194581E-012  0.200151E-011  0.131876E-005  0.255611E-003  0.623547       0.954693       0.992640     
  0.667826       0.132901       0.990966       0.990263     
 
  0.122007E-006  0.585222E-007  0.473561E-007  0.200311E-008  0.489950E-008  0.317837E-005  0.308686E-003  0.651114       0.944812       0.993808     
  0.787798       0.149970       0.990225       0.985899       0.644905E-007  0.231670E-007  0.218147E-007  0.293824E-009  0.884261E-009  0.140154E-005
  0.164209E-003  0.615185       0.938237       0.993211       0.714020       0.132840       0.989677       0.984903       0.115010E-006  0.585316E-007
  0.614302E-007  0.189930E-008  0.436264E-008  0.392925E-005  0.617811E-003  0.663052       0.965885       0.994564       0.706032       0.161115     
  0.993604       0.994371       0.346663E-007  0.698222E-008  0.679565E-008  0.172738E-010  0.773356E-010  0.638819E-006  0.107101E-003  0.591033     
  0.942355       0.992718       0.665678       0.121981       0.990152       0.987959       0.166516E-005  0.145257E-005  0.154376E-005  0.124664E-005
  0.110963E-005  0.445292E-004  0.396558E-002  0.753791       0.979332       0.996227       0.768358       0.237869       0.995807       0.996654     
  0.240764E-007  0.776055E-009  0.873475E-009  0.194247E-012  0.199853E-011  0.233646E-006  0.573395E-004  0.571625       0.943616       0.991966     
  0.665195       0.990140E-001  0.988730       0.986096     
 
  0.121355E-006  0.582512E-007  0.471615E-007  0.199453E-008  0.488109E-008  0.652708E-006  0.763779E-004  0.596801       0.923804       0.992580     
  0.785284       0.114939       0.986929       0.979140       0.642050E-007  0.230783E-007  0.217411E-007  0.292781E-009  0.881532E-009  0.268916E-006
  0.384243E-004  0.560832       0.919449       0.992143       0.710138       0.100028       0.986597       0.978765       0.114829E-006  0.584651E-007
  0.613761E-007  0.189720E-008  0.435928E-008  0.887494E-006  0.182888E-003  0.618208       0.958237       0.994110       0.703386       0.126250     
  0.992212       0.992011       0.345019E-007  0.695486E-008  0.677160E-008  0.172117E-010  0.770823E-010  0.116090E-006  0.240700E-004  0.538033     
  0.924372       0.991603       0.662048       0.910096E-001  0.987012       0.981508       0.166371E-005  0.145177E-005  0.154320E-005  0.124593E-005
  0.110929E-005  0.138010E-004  0.166316E-002  0.720384       0.976184       0.995965       0.766871       0.198476       0.995037       0.995633     
  0.239900E-007  0.773804E-009  0.871167E-009  0.193741E-012  0.199365E-011  0.381324E-007  0.117193E-004  0.516625       0.928745       0.991028     
  0.662610       0.714477E-001  0.985863       0.980535     
 
  0.120311E-006  0.578128E-007  0.468345E-007  0.198077E-008  0.485040E-008  0.142310E-006  0.180164E-004  0.539638       0.896327       0.990603     
  0.782409       0.859245E-001  0.982589       0.970291       0.637865E-007  0.229479E-007  0.216286E-007  0.291269E-009  0.877410E-009  0.563287E-007
  0.855923E-005  0.504402       0.895928       0.990602       0.706293       0.733014E-001  0.982735       0.971116       0.114564E-006  0.583602E-007
  0.612804E-007  0.189406E-008  0.435334E-008  0.216374E-006  0.500611E-004  0.570659       0.947601       0.993483       0.700949       0.967414E-001
  0.990416       0.988531       0.342346E-007  0.690897E-008  0.673013E-008  0.171087E-010  0.766518E-010  0.238032E-007  0.517216E-005  0.482514     
  0.900480       0.989824       0.658332       0.657982E-001  0.982823       0.972949       0.166206E-005  0.145074E-005  0.154231E-005  0.124508E-005
  0.110873E-005  0.394802E-005  0.642746E-003  0.683683       0.971762       0.995635       0.765559       0.163020       0.994108       0.994179     
  0.238571E-007  0.770254E-009  0.867455E-009  0.192950E-012  0.198592E-011  0.725964E-008  0.229985E-005  0.459899       0.909504       0.989677     
  0.659991       0.498509E-001  0.982201       0.973399     
 
  0.118605E-006  0.570892E-007  0.462860E-007  0.195824E-008  0.479905E-008  0.953007E-007  0.408635E-005  0.480239       0.860879       0.987336     
  0.778930       0.624475E-001  0.976855       0.959002       0.631592E-007  0.227508E-007  0.214557E-007  0.289005E-009  0.871100E-009  0.376295E-007
  0.184620E-005  0.446822       0.866758       0.988311       0.702337       0.521128E-001  0.977897       0.961800       0.114179E-006  0.582006E-007
  0.611283E-007  0.188940E-008  0.434384E-008  0.151051E-006  0.130168E-004  0.520991       0.933865       0.992620       0.698611       0.722977E-001
  0.988158       0.983935       0.338023E-007  0.683328E-008  0.666091E-008  0.169395E-010  0.759366E-010  0.159908E-007  0.107277E-005  0.425340     
  0.869473       0.986953       0.654400       0.459190E-001  0.977299       0.962039       0.165974E-005  0.144916E-005  0.154083E-005  0.124383E-005
  0.110780E-005  0.118838E-005  0.229713E-003  0.643864       0.965413       0.995201       0.764252       0.131582       0.992963       0.992094     
  0.236599E-007  0.764851E-009  0.861760E-009  0.191748E-012  0.197415E-011  0.481325E-008  0.442859E-006  0.402541       0.885280       0.987734     
  0.657200       0.334973E-001  0.977633       0.964691     
 
  0.115987E-006  0.559707E-007  0.454314E-007  0.192353E-008  0.471914E-008  0.928738E-007  0.888166E-006  0.419959       0.817049       0.982213     
  0.774604       0.440832E-001  0.969512       0.945342       0.621694E-007  0.224368E-007  0.211775E-007  0.285411E-009  0.860954E-009  0.369174E-007
  0.387813E-006  0.389296       0.830054       0.984682       0.698005       0.359247E-001  0.971669       0.950195       0.113617E-006  0.579604E-007
  0.608942E-007  0.188244E-008  0.432913E-008  0.150222E-006  0.326395E-005  0.470221       0.916546       0.991411       0.696331       0.526743E-001
  0.985344       0.978111       0.331217E-007  0.671238E-008  0.654966E-008  0.166691E-010  0.747885E-010  0.156812E-007  0.218559E-006  0.368083     
  0.830459       0.982359       0.650032       0.309370E-001  0.970165       0.948636       0.165626E-005  0.144666E-005  0.153840E-005  0.124189E-005
  0.110625E-005  0.924689E-006  0.768350E-004  0.601513       0.956544       0.994610       0.762923       0.104367       0.991535       0.989191     
  0.233662E-007  0.756649E-009  0.853067E-009  0.189915E-012  0.195623E-011  0.475666E-008  0.859527E-007  0.346041       0.855101       0.984874     
  0.654095       0.216570E-001  0.971946       0.954115     
 
  0.112396E-006  0.544278E-007  0.442475E-007  0.187560E-008  0.460822E-008  0.897197E-007  0.187800E-006  0.361022       0.766461       0.974984     
  0.769343       0.302980E-001  0.960720       0.930236       0.605968E-007  0.219335E-007  0.207288E-007  0.279631E-009  0.844526E-009  0.358903E-007
  0.799975E-007  0.333274       0.784056       0.978810       0.692940       0.240791E-001  0.963606       0.936061       0.112810E-006  0.576071E-007
  0.605467E-007  0.187221E-008  0.430712E-008  0.149058E-006  0.805679E-006  0.419786       0.895312       0.989718       0.694071       0.375087E-001
  0.981848       0.971058       0.321264E-007  0.653371E-008  0.638460E-008  0.162686E-010  0.730830E-010  0.152350E-007  0.443441E-007  0.312865     
  0.783889       0.975452       0.645000       0.202150E-001  0.961366       0.933228       0.165125E-005  0.144295E-005  0.153474E-005  0.123905E-005
  0.110392E-005  0.921398E-006  0.246461E-004  0.557826       0.945082       0.993817       0.761571       0.815442E-001  0.989794       0.985461     
  0.229442E-007  0.744693E-009  0.840348E-009  0.187228E-012  0.192998E-011  0.467325E-008  0.169350E-007  0.292246       0.818668       0.980741     
  0.650581       0.135158E-001  0.964980       0.941749     
 
  0.107000E-006  0.520919E-007  0.424469E-007  0.180267E-008  0.443878E-008  0.856330E-007  0.397083E-007  0.303881       0.704696       0.963652     
  0.762201       0.203037E-001  0.949770       0.912469       0.581809E-007  0.211541E-007  0.200310E-007  0.270641E-009  0.818860E-009  0.345319E-007
  0.168610E-007  0.279763       0.727462       0.969482       0.686629       0.157155E-001  0.953431       0.919171       0.111637E-006  0.570850E-007
  0.600301E-007  0.185705E-008  0.427425E-008  0.147613E-006  0.201039E-006  0.370699       0.869579       0.987293       0.691662       0.261394E-001
  0.977527       0.962573       0.307550E-007  0.628534E-008  0.615440E-008  0.157095E-010  0.706984E-010  0.146747E-007  0.940559E-008  0.261047     
  0.730103       0.965571       0.639012       0.128375E-001  0.950957       0.916014       0.164443E-005  0.143779E-005  0.152961E-005  0.123511E-005
  0.110064E-005  0.917618E-006  0.774666E-005  0.513908       0.931394       0.992778       0.760185       0.628704E-001  0.987738       0.980962     
  0.223556E-007  0.727844E-009  0.822372E-009  0.183422E-012  0.189281E-011  0.456746E-008  0.355500E-008  0.242392       0.775743       0.974876     
  0.646456       0.815695E-002  0.956645       0.927609     
 
  0.983416E-007  0.483051E-007  0.395132E-007  0.168367E-008  0.416072E-008  0.797822E-007  0.837816E-008  0.248377       0.626390       0.944252     
  0.751259       0.132942E-001  0.935645       0.890678       0.547408E-007  0.200348E-007  0.190250E-007  0.257674E-009  0.781672E-009  0.327876E-007
  0.367576E-008  0.229888       0.661266       0.955553       0.678574       0.100120E-001  0.941242       0.899912       0.109998E-006  0.563470E-007
  0.592979E-007  0.183557E-008  0.422752E-008  0.145807E-006  0.514442E-007  0.324010       0.839300       0.983910       0.688947       0.178709E-001
  0.972373       0.952779       0.289755E-007  0.596024E-008  0.585208E-008  0.149743E-010  0.675538E-010  0.139897E-007  0.212180E-008  0.213736     
  0.670133       0.952134       0.631801       0.794676E-002  0.939126       0.897345       0.163573E-005  0.143113E-005  0.152296E-005  0.123002E-005
  0.109637E-005  0.913382E-006  0.244026E-005  0.470842       0.916001       0.991481       0.758761       0.479380E-001  0.985397       0.975932     
  0.215704E-007  0.705166E-009  0.798114E-009  0.178282E-012  0.184252E-011  0.443586E-008  0.796900E-009  0.197465       0.726593       0.966841     
  0.641513       0.477468E-002  0.947030       0.911956     
 
  0.854109E-007  0.425692E-007  0.350407E-007  0.150155E-008  0.373218E-008  0.714693E-007  0.192063E-008  0.195621       0.532452       0.912293     
  0.734252       0.857803E-002  0.917997       0.864720       0.501053E-007  0.185111E-007  0.176492E-007  0.239902E-009  0.730447E-009  0.305584E-007
  0.942554E-009  0.184811       0.586866       0.935518       0.668106       0.627921E-002  0.927048       0.878430       0.107926E-006  0.554078E-007
  0.583637E-007  0.180815E-008  0.416772E-008  0.143647E-006  0.147029E-007  0.281294       0.806314       0.979609       0.685954       0.120887E-001
  0.966612       0.942198       0.268095E-007  0.556076E-008  0.547915E-008  0.140651E-010  0.636522E-010  0.131785E-007  0.593020E-009  0.172118     
  0.606192       0.934802       0.623215       0.484051E-002  0.926116       0.877616       0.162545E-005  0.142320E-005  0.151502E-005  0.122396E-005
  0.109126E-005  0.908730E-006  0.828427E-006  0.429992       0.899760       0.989972       0.757325       0.363544E-001  0.982865       0.970621     
  0.205771E-007  0.676249E-009  0.767092E-009  0.171697E-012  0.177794E-011  0.427548E-008  0.204417E-009  0.158463       0.672636       0.956326     
  0.635649       0.273884E-002  0.936282       0.895085     
 
  0.685481E-007  0.349380E-007  0.290371E-007  0.125531E-008  0.314774E-008  0.605604E-007  0.120412E-008  0.147018       0.429105       0.864099     
  0.709077       0.547747E-002  0.896960       0.834865       0.442508E-007  0.165622E-007  0.158794E-007  0.216940E-009  0.663899E-009  0.277914E-007
  0.664180E-009  0.144947       0.506559       0.907885       0.654482       0.389125E-002  0.910875       0.854675       0.105475E-006  0.542904E-007
  0.572499E-007  0.177541E-008  0.409622E-008  0.141206E-006  0.107565E-007  0.243046       0.772065       0.974465       0.682710       0.812344E-002
  0.960426       0.931168       0.243153E-007  0.509577E-008  0.504310E-008  0.129978E-010  0.590554E-010  0.122509E-007  0.446566E-009  0.136408     
  0.540369       0.913371       0.613116       0.291351E-002  0.912126       0.857007       0.161387E-005  0.141424E-005  0.150603E-005  0.121709E-005
  0.108547E-005  0.903838E-006  0.615823E-006  0.391836       0.883158       0.988296       0.755890       0.274815E-001  0.980211       0.965156     
  0.193801E-007  0.641116E-009  0.729277E-009  0.163647E-012  0.169881E-011  0.408643E-008  0.155704E-009  0.125403       0.615383       0.943095     
  0.628770       0.154680E-002  0.924542       0.877159     
 
  0.505604E-007  0.265737E-007  0.223787E-007  0.979342E-009  0.248552E-008  0.483528E-007  0.977458E-009  0.105125       0.328625       0.801222     
  0.675950       0.346065E-002  0.873581       0.802827       0.374519E-007  0.142617E-007  0.137754E-007  0.189478E-009  0.583790E-009  0.245372E-007
  0.592853E-009  0.110550       0.424342       0.871834       0.637180       0.238383E-002  0.893011       0.829206       0.102668E-006  0.530053E-007
  0.559666E-007  0.173762E-008  0.401360E-008  0.138455E-006  0.105555E-007  0.209025       0.737115       0.968477       0.679184       0.542272E-002
  0.953924       0.919835       0.215923E-007  0.458176E-008  0.455854E-008  0.118064E-010  0.539004E-010  0.112244E-007  0.411447E-009  0.106342     
  0.474626       0.887863       0.601443       0.173332E-002  0.897425       0.835854       0.160127E-005  0.140448E-005  0.149623E-005  0.120960E-005
  0.107915E-005  0.898636E-006  0.612689E-006  0.356348       0.866488       0.986487       0.754457       0.207032E-001  0.977484       0.959595     
  0.180069E-007  0.600459E-009  0.685355E-009  0.154266E-012  0.160635E-011  0.386964E-008  0.148052E-009  0.978426E-001  0.556464       0.927066     
  0.620843       0.860368E-003  0.912050       0.858535     
 
  0.348030E-007  0.189930E-007  0.162551E-007  0.722107E-009  0.185991E-008  0.367848E-007  0.756904E-009  0.720822E-001  0.242052       0.730158     
  0.637563       0.216255E-002  0.849208       0.770523       0.302049E-007  0.117592E-007  0.114664E-007  0.159104E-009  0.494462E-009  0.209458E-007
  0.511969E-009  0.817869E-001  0.344520       0.827240       0.615920       0.144470E-002  0.873687       0.802551       0.995390E-007  0.515654E-007
  0.545258E-007  0.169512E-008  0.392056E-008  0.135394E-006  0.103316E-007  0.178942       0.701670       0.961652       0.675347       0.359579E-002
  0.947155       0.908329       0.187695E-007  0.404132E-008  0.404600E-008  0.105393E-010  0.483888E-010  0.101326E-007  0.373690E-009  0.815440E-001
  0.410857       0.858597       0.588252       0.101931E-002  0.882178       0.814483       0.158773E-005  0.139395E-005  0.148565E-005  0.120150E-005
  0.107233E-005  0.893128E-006  0.609320E-006  0.323452       0.849803       0.984547       0.753016       0.155413E-001  0.974710       0.953974     
  0.165077E-007  0.555642E-009  0.636743E-009  0.143848E-012  0.150329E-011  0.363057E-008  0.139527E-009  0.752718E-001  0.497520       0.908399     
  0.611934       0.471481E-003  0.898978       0.839574     
 
  0.237566E-007  0.134725E-007  0.117223E-007  0.528817E-009  0.138275E-008  0.278655E-007  0.582810E-009  0.499141E-001  0.179475       0.664005     
  0.600651       0.140617E-002  0.827287       0.742168       0.238907E-007  0.952601E-008  0.938498E-008  0.131471E-009  0.412436E-009  0.176554E-007
  0.436160E-009  0.608346E-001  0.278862       0.781046       0.593734       0.914341E-003  0.855531       0.778171       0.965000E-007  0.501608E-007
  0.531177E-007  0.165352E-008  0.382934E-008  0.132420E-006  0.101131E-007  0.155113       0.669911       0.954865       0.671653       0.247452E-002
  0.940896       0.897958       0.162627E-007  0.355384E-008  0.358069E-008  0.938229E-011  0.433263E-010  0.913240E-008  0.338684E-009  0.634098E-001
  0.356984       0.829580       0.575237       0.627279E-003  0.868207       0.795340       0.157501E-005  0.138406E-005  0.147569E-005  0.119387E-005
  0.106589E-005  0.887989E-006  0.606110E-006  0.296199       0.835104       0.982725       0.751725       0.119871E-001  0.972199       0.948955     
  0.151075E-007  0.513328E-009  0.590650E-009  0.133933E-012  0.140483E-011  0.340423E-008  0.131346E-009  0.588410E-001  0.446337       0.889697     
  0.603198       0.271742E-003  0.886952       0.822549     
 
  0.151880E-007  0.900972E-008  0.799227E-008  0.367098E-009  0.976994E-009  0.201599E-007  0.429099E-009  0.330870E-001  0.128197       0.594079     
  0.560167       0.895099E-003  0.804658       0.713444       0.179362E-007  0.736263E-008  0.734481E-008  0.104092E-009  0.330298E-009  0.143450E-007
  0.358490E-009  0.436426E-001  0.218784       0.727921       0.567816       0.566346E-003  0.836264       0.752841       0.931542E-007  0.486065E-007
  0.515563E-007  0.160732E-008  0.372786E-008  0.129131E-006  0.987096E-008  0.133423       0.637195       0.947184       0.667579       0.167571E-002
  0.934253       0.887266       0.137259E-007  0.305216E-008  0.309831E-008  0.817472E-011  0.380083E-010  0.808023E-008  0.301509E-009  0.481880E-001
  0.304727       0.796412       0.560362       0.377075E-003  0.853431       0.775466       0.156193E-005  0.137386E-005  0.146544E-005  0.118602E-005
  0.105926E-005  0.882755E-006  0.602797E-006  0.270479       0.820646       0.980840       0.750427       0.916233E-002  0.969639       0.944013     
  0.136438E-007  0.468582E-009  0.541661E-009  0.123346E-012  0.129926E-011  0.316270E-008  0.122530E-009  0.451690E-001  0.396088       0.868590     
  0.593468       0.152409E-003  0.874389       0.805098     
 
  0.933913E-008  0.581845E-008  0.527097E-008  0.246895E-009  0.669813E-009  0.141979E-007  0.307589E-009  0.216318E-001  0.901047E-001  0.526375     
  0.519290       0.581103E-003  0.782848       0.686203       0.130318E-007  0.552573E-008  0.558942E-008  0.802436E-010  0.257869E-009  0.113925E-007
  0.288065E-009  0.310146E-001  0.169213       0.672863       0.540367       0.358645E-003  0.817425       0.728501       0.897604E-007  0.470216E-007
  0.499594E-007  0.155997E-008  0.362366E-008  0.125761E-006  0.962161E-008  0.115404       0.606012       0.939131       0.663422       0.115716E-002
  0.927791       0.877124       0.113868E-007  0.258104E-008  0.264163E-008  0.702305E-011  0.328982E-010  0.706354E-008  0.265263E-009  0.365657E-001
  0.257857       0.761282       0.544559       0.231939E-003  0.838918       0.756229       0.154986E-005  0.136442E-005  0.145590E-005  0.117871E-005
  0.105310E-005  0.877932E-006  0.599671E-006  0.248480       0.808018       0.979073       0.749244       0.711750E-002  0.967307       0.939676     
  0.122559E-007  0.425697E-009  0.494453E-009  0.113099E-012  0.119657E-011  0.292774E-008  0.113877E-009  0.348536E-001  0.350558       0.846834     
  0.583542       0.877011E-004  0.862295       0.788595     
 
  0.588527E-008  0.384164E-008  0.355034E-008  0.169431E-009  0.468112E-009  0.101872E-007  0.224320E-009  0.146635E-001  0.650969E-001  0.469260     
  0.483272       0.400970E-003  0.764198       0.663190       0.957877E-008  0.419043E-008  0.429598E-008  0.624502E-010  0.203153E-009  0.913063E-008
  0.233404E-009  0.227251E-001  0.133428       0.623719       0.515241       0.242456E-003  0.801183       0.707790       0.867348E-007  0.456037E-007
  0.485274E-007  0.151745E-008  0.352981E-008  0.122731E-006  0.939716E-008  0.101813       0.579689       0.931739       0.659676       0.843411E-003
  0.922191       0.868537       0.952324E-008  0.219854E-008  0.226791E-008  0.607377E-011  0.286551E-010  0.621331E-008  0.234743E-009  0.285649E-001
  0.221076       0.729079       0.529950       0.152888E-003  0.826331       0.739734       0.153989E-005  0.135662E-005  0.144800E-005  0.117264E-005
  0.104796E-005  0.873940E-006  0.597063E-006  0.231360       0.798042       0.977600       0.748279       0.574733E-002  0.965388       0.936221     
  0.110980E-007  0.389544E-009  0.454482E-009  0.104392E-012  0.110890E-011  0.272692E-008  0.106439E-009  0.277722E-001  0.314176       0.827183     
  0.574620       0.545798E-004  0.851978       0.774675     
 
  0.353515E-008  0.242959E-008  0.229543E-008  0.111824E-009  0.315235E-009  0.706651E-008  0.158376E-009  0.965951E-002  0.458243E-001  0.413403     
  0.446419       0.274683E-003  0.745342       0.640172       0.679296E-008  0.307736E-008  0.320238E-008  0.472086E-010  0.155672E-009  0.713587E-008
  0.184605E-009  0.162937E-001  0.103205       0.573083       0.488610       0.162786E-003  0.784656       0.686951       0.835990E-007  0.441257E-007
  0.470345E-007  0.147299E-008  0.343166E-008  0.119559E-006  0.916290E-008  0.895615E-001  0.553510       0.923863       0.655730       0.611888E-003
  0.916454       0.859890       0.781283E-008  0.184070E-008  0.191541E-008  0.517153E-011  0.245918E-010  0.539239E-008  0.205081E-009  0.220206E-001
  0.187380       0.694988       0.514296       0.100016E-003  0.813468       0.723037       0.153019E-005  0.134899E-005  0.144030E-005  0.116671E-005
  0.104295E-005  0.870035E-006  0.594532E-006  0.215400       0.788591       0.976156       0.747348       0.463396E-002  0.963503       0.932906     
  0.997498E-008  0.354080E-009  0.415128E-009  0.957782E-013  0.102185E-011  0.252708E-008  0.990045E-010  0.219547E-001  0.280030       0.806590     
  0.565264       0.336632E-004  0.841562       0.760745     
 
  0.220022E-008  0.158648E-008  0.152990E-008  0.759769E-010  0.218228E-009  0.503072E-008  0.114595E-009  0.661550E-002  0.332994E-001  0.367443     
  0.414657       0.198334E-003  0.729233       0.620688       0.491544E-008  0.230108E-008  0.242868E-008  0.362752E-010  0.121160E-009  0.566001E-008
  0.148069E-009  0.120585E-001  0.816764E-001  0.529169       0.464814       0.115593E-003  0.770460       0.669222       0.808530E-007  0.428290E-007
  0.457200E-007  0.143385E-008  0.334510E-008  0.116763E-006  0.895686E-008  0.801696E-001  0.531545       0.916789       0.652214       0.464822E-003
  0.911508       0.852569       0.649373E-008  0.155920E-008  0.163582E-008  0.445009E-011  0.213181E-010  0.472495E-008  0.180821E-009  0.174639E-001
  0.161344       0.664571       0.500132       0.694317E-004  0.802391       0.708777       0.152228E-005  0.134280E-005  0.143401E-005  0.116188E-005
  0.103887E-005  0.866858E-006  0.592482E-006  0.202779       0.781049       0.974977       0.746590       0.385898E-002  0.961947       0.930241     
  0.905334E-008  0.324693E-009  0.382351E-009  0.885732E-013  0.948779E-012  0.235887E-008  0.927296E-010  0.178740E-001  0.252966       0.788346     
  0.556953       0.222043E-004  0.832699       0.748979     
 
  0.163664E-008  0.121597E-008  0.118772E-008  0.596955E-010  0.173476E-009  0.407001E-008  0.936470E-010  0.523294E-002  0.273415E-001  0.341402     
  0.395994       0.162603E-003  0.719594       0.609111       0.401390E-008  0.191812E-008  0.204245E-008  0.307578E-010  0.103561E-009  0.489599E-008
  0.128976E-009  0.100086E-001  0.706910E-001  0.503409       0.450512       0.938169E-004  0.761943       0.658652       0.791989E-007  0.420448E-007
  0.449247E-007  0.141014E-008  0.329257E-008  0.115066E-006  0.883181E-008  0.749287E-001  0.518573       0.912439       0.650055       0.393171E-003
  0.908517       0.848177       0.578514E-008  0.140565E-008  0.148226E-008  0.405138E-011  0.194982E-010  0.435088E-008  0.167157E-009  0.151394E-001
  0.147144       0.646254       0.491491       0.555755E-004  0.795728       0.700241       0.151755E-005  0.133908E-005  0.143024E-005  0.115899E-005
  0.103642E-005  0.864959E-006  0.591254E-006  0.195493       0.776586       0.974270       0.746137       0.345296E-002  0.961012       0.928659     
  0.852588E-008  0.307728E-009  0.363365E-009  0.843866E-013  0.906168E-012  0.226051E-008  0.890504E-010  0.157583E-001  0.237734       0.777265     
  0.551880       0.172244E-004  0.827378       0.741945     
 
 )
