TRANSMISSION%TAU_TOTAL = (
  0.107720E-007  0.465429       0.297599E-004  0.488674       0.203965E-004  0.840645       0.653660E-004  0.556678       0.500118E-002  0.955288     
  0.133645E-003  0.650940     
 )
TRANSMISSION%TAU_LAYERS = (
   1.00000        1.00000        1.00000        1.00000        1.00000        1.00000        1.00000        1.00000        1.00000        1.00000     
   1.00000        1.00000     
 
  0.999989        1.00000       0.999988        1.00000       0.999989        1.00000       0.999988        1.00000       0.999991        1.00000     
  0.999984        1.00000     
 
  0.999952        1.00000       0.999954        1.00000       0.999955        1.00000       0.999954        1.00000       0.999965        1.00000     
  0.999939        1.00000     
 
  0.999862        1.00000       0.999876        1.00000       0.999879        1.00000       0.999877        1.00000       0.999906        1.00000     
  0.999838        1.00000     
 
  0.999692        1.00000       0.999726        1.00000       0.999737       0.999999       0.999729        1.00000       0.999794       0.999999     
  0.999656       0.999999     
 
  0.999424       0.999999       0.999479       0.999999       0.999509       0.999998       0.999483       0.999999       0.999610       0.999999     
  0.999375       0.999998     
 
  0.999065       0.999997       0.999126       0.999996       0.999189       0.999996       0.999128       0.999996       0.999346       0.999997     
  0.998995       0.999996     
 
  0.998673       0.999993       0.998724       0.999991       0.998827       0.999992       0.998723       0.999990       0.999042       0.999995     
  0.998574       0.999990     
 
  0.998235       0.999985       0.998267       0.999983       0.998420       0.999986       0.998264       0.999980       0.998699       0.999991     
  0.998103       0.999979     
 
  0.997788       0.999975       0.997793       0.999969       0.997995       0.999976       0.997782       0.999965       0.998338       0.999987     
  0.997613       0.999964     
 
  0.997299       0.999959       0.997270       0.999951       0.997525       0.999964       0.997237       0.999942       0.997934       0.999980     
  0.997065       0.999942     
 
  0.996748       0.999937       0.996680       0.999924       0.996987       0.999947       0.996608       0.999912       0.997474       0.999971     
  0.996424       0.999914     
 
  0.996076       0.999904       0.995945       0.999887       0.996317       0.999922       0.995814       0.999869       0.996909       0.999956     
  0.995601       0.999873     
 
  0.995223       0.999853       0.994987       0.999831       0.995453       0.999884       0.994776       0.999807       0.996184       0.999931     
  0.994520       0.999812     
 
  0.994137       0.999777       0.993742       0.999749       0.994319       0.999823       0.993414       0.999718       0.995239       0.999889     
  0.993101       0.999719     
 
  0.992774       0.999668       0.992150       0.999632       0.992849       0.999729       0.991649       0.999590       0.994011       0.999824     
  0.991275       0.999580     
 
  0.991112       0.999516       0.990182       0.999469       0.990991       0.999591       0.989430       0.999410       0.992460       0.999728     
  0.988991       0.999380     
 
  0.989140       0.999313       0.987797       0.999249       0.988674       0.999399       0.986687       0.999164       0.990514       0.999594     
  0.986182       0.999105     
 
  0.986813       0.999053       0.984950       0.998961       0.985847       0.999143       0.983347       0.998841       0.988125       0.999414     
  0.982807       0.998741     
 
  0.984130       0.998734       0.981612       0.998605       0.982423       0.998822       0.979311       0.998439       0.985218       0.999188     
  0.978800       0.998288     
 
  0.981102       0.998375       0.977814       0.998200       0.978336       0.998455       0.974516       0.997981       0.981758       0.998927     
  0.974126       0.997772     
 
  0.977644       0.998000       0.973551       0.997774       0.973585       0.998067       0.969030       0.997496       0.977755       0.998650     
  0.968780       0.997229     
 
  0.973606       0.997643       0.968675       0.997363       0.967949       0.997692       0.962638       0.997026       0.973039       0.998381     
  0.962526       0.996703     
 
  0.968799       0.997329       0.963082       0.996997       0.961286       0.997357       0.955406       0.996602       0.967481       0.998140     
  0.955267       0.996233     
 
  0.962931       0.997056       0.956687       0.996673       0.953902       0.997056       0.947840       0.996219       0.961444       0.997924     
  0.947038       0.995813     
 
  0.956162       0.996804       0.949067       0.996369       0.945270       0.996772       0.938995       0.995855       0.954506       0.997721     
  0.936728       0.995419     
 
  0.946696       0.996544       0.940035       0.996058       0.935630       0.996481       0.929038       0.995481       0.946965       0.997513     
  0.923730       0.995017     
 
  0.933547       0.996256       0.928077       0.995724       0.924552       0.996168       0.917644       0.995080       0.938377       0.997292     
  0.905857       0.994586     
 
  0.914141       0.995934       0.908690       0.995362       0.912146       0.995830       0.904940       0.994647       0.927243       0.997055     
  0.876375       0.994118     
 
  0.878138       0.995566       0.868689       0.994956       0.894697       0.995464       0.885612       0.994178       0.910925       0.996799     
  0.834011       0.993607     
 
  0.816600       0.995142       0.792420       0.994484       0.864070       0.995070       0.851390       0.993675       0.884915       0.996523     
  0.775495       0.993048     
 
  0.714782       0.994599       0.664232       0.993851       0.813879       0.994632       0.790352       0.993114       0.849725       0.996221     
  0.698751       0.992408     
 
  0.587934       0.993898       0.526631       0.993017       0.748921       0.994147       0.690356       0.992475       0.810422       0.995898     
  0.596511       0.991635     
 
  0.442521       0.992859       0.392782       0.991841       0.665528       0.993574       0.535252       0.991585       0.765219       0.995539     
  0.464357       0.990613     
 
  0.306797       0.991239       0.278411       0.990182       0.565432       0.992872       0.371819       0.990190       0.688284       0.995118     
  0.332872       0.989196     
 
  0.195473       0.988880       0.186677       0.987966       0.450711       0.991963       0.234578       0.988090       0.585375       0.994592     
  0.227053       0.987305     
 
  0.114980       0.985296       0.115474       0.984725       0.331887       0.990764       0.136693       0.984967       0.483980       0.993965     
  0.143726       0.984665     
 
  0.619754E-001  0.980079       0.681517E-001  0.980421       0.226556       0.989025       0.743859E-001  0.980379       0.385265       0.993158     
  0.864435E-001  0.981082     
 
  0.305756E-001  0.972578       0.377923E-001  0.974687       0.148529       0.986735       0.375484E-001  0.973740       0.292171       0.992097     
  0.494068E-001  0.976252     
 
  0.141678E-001  0.962113       0.194460E-001  0.966772       0.938521E-001  0.983703       0.177431E-001  0.964457       0.210348       0.990653     
  0.268904E-001  0.969880     
 
  0.642593E-002  0.948838       0.893446E-002  0.955360       0.565346E-001  0.979745       0.763497E-002  0.951847       0.145740       0.988754     
  0.135158E-001  0.961326     
 
  0.232896E-002  0.930799       0.353437E-002  0.939650       0.323274E-001  0.974575       0.323410E-002  0.935807       0.986764E-001  0.986381     
  0.655192E-002  0.950613     
 
  0.723831E-003  0.903031       0.137086E-002  0.918354       0.174962E-001  0.967889       0.146506E-002  0.915532       0.657983E-001  0.983594     
  0.326180E-002  0.936997     
 
  0.234477E-003  0.859937       0.513669E-003  0.888991       0.952325E-002  0.959906       0.598590E-003  0.890160       0.451061E-001  0.980540     
  0.147284E-002  0.919718     
 
  0.774755E-004  0.799968       0.186746E-003  0.851915       0.524362E-002  0.950917       0.246839E-003  0.860967       0.316345E-001  0.977232     
  0.644137E-003  0.899701     
 
  0.275546E-004  0.727204       0.806869E-004  0.807677       0.299328E-002  0.941183       0.132131E-003  0.828915       0.225648E-001  0.973762     
  0.339019E-003  0.877807     
 
  0.321826E-005  0.649575       0.297599E-004  0.754749       0.173545E-002  0.930689       0.653660E-004  0.792617       0.164022E-001  0.970382     
  0.171546E-003  0.852207     
 
  0.321826E-005  0.576543       0.297599E-004  0.699648       0.102671E-002  0.920016       0.653660E-004  0.756431       0.124164E-001  0.967025     
  0.133645E-003  0.826896     
 
  0.107720E-007  0.507958       0.297599E-004  0.643933       0.603966E-003  0.909138       0.653660E-004  0.720040       0.955022E-002  0.963736     
  0.133645E-003  0.802437     
 
  0.107720E-007  0.438543       0.297599E-004  0.587340       0.363520E-003  0.898175       0.653660E-004  0.681505       0.769428E-002  0.961031     
  0.133645E-003  0.776421     
 
  0.107720E-007  0.382367       0.297599E-004  0.534697       0.222768E-003  0.887634       0.653660E-004  0.644592       0.641565E-002  0.958676     
  0.133645E-003  0.751872     
 
  0.107720E-007  0.335296       0.297599E-004  0.488129       0.138881E-003  0.877893       0.653660E-004  0.610805       0.553538E-002  0.956684     
  0.133645E-003  0.729471     
 
  0.107720E-007  0.296914       0.297599E-004  0.448250       0.901067E-004  0.869219       0.653660E-004  0.581064       0.489467E-002  0.954992     
  0.133645E-003  0.709841     
 
  0.107720E-007  0.267373       0.297599E-004  0.416333       0.623722E-004  0.862054       0.653660E-004  0.556678       0.444587E-002  0.953669     
  0.133645E-003  0.694777     
 
 )
