TRANSMISSION%TAU_TOTAL = (
  0.615242       0.245863E-005  0.660070E-003  0.557647       0.304301       0.542729       0.401275       0.104917       0.581525       0.176813E-005
  0.588912E-003  0.559821       0.232052       0.563885       0.424999       0.106865       0.608149       0.510588E-007  0.158907E-001  0.782943     
  0.284457       0.871492       0.811779       0.299428       0.556496       0.798256E-006  0.980684E-003  0.596878       0.212478       0.626955     
  0.495968       0.130950       0.688369       0.846443E-004  0.120276       0.896274       0.386672       0.962861       0.948816       0.462595     
  0.534085       0.136790E-005  0.120023E-002  0.635366       0.220073       0.708309       0.598859       0.160556     
 )
TRANSMISSION%TAU_LAYERS = (
   1.00000        1.00000        1.00000        1.00000        1.00000        1.00000        1.00000        1.00000        1.00000        1.00000     
   1.00000        1.00000        1.00000        1.00000        1.00000        1.00000        1.00000        1.00000        1.00000        1.00000     
   1.00000        1.00000        1.00000        1.00000        1.00000        1.00000        1.00000        1.00000        1.00000        1.00000     
   1.00000        1.00000        1.00000        1.00000        1.00000        1.00000        1.00000        1.00000        1.00000        1.00000     
   1.00000        1.00000        1.00000        1.00000        1.00000        1.00000        1.00000        1.00000     
 
  0.999222       0.999981       0.999998        1.00000       0.999971        1.00000        1.00000       0.999971       0.999217       0.999980     
  0.999998        1.00000       0.999969        1.00000        1.00000       0.999977       0.999188       0.999983       0.999998        1.00000     
  0.999973        1.00000        1.00000       0.999948       0.999198       0.999979       0.999998        1.00000       0.999963        1.00000     
   1.00000       0.999977       0.999252       0.999987       0.999998        1.00000       0.999979        1.00000        1.00000       0.999950     
  0.999121       0.999975       0.999997        1.00000       0.999961        1.00000        1.00000       0.999945     
 
  0.998922       0.999925       0.999994       0.999999       0.999938        1.00000        1.00000       0.999892       0.998924       0.999926     
  0.999994        1.00000       0.999942        1.00000        1.00000       0.999908       0.998859       0.999933       0.999993       0.999999     
  0.999941        1.00000        1.00000       0.999830       0.998898       0.999924       0.999994        1.00000       0.999935        1.00000     
   1.00000       0.999909       0.998938       0.999951       0.999994       0.999999       0.999950        1.00000        1.00000       0.999833     
  0.998771       0.999906       0.999991       0.999999       0.999912        1.00000        1.00000       0.999821     
 
  0.998596       0.999793       0.999981       0.999999       0.999865        1.00000        1.00000       0.999714       0.998590       0.999809     
  0.999983       0.999999       0.999855        1.00000        1.00000       0.999731       0.998522       0.999826       0.999981       0.999998     
  0.999850       0.999999        1.00000       0.999610       0.998554       0.999808       0.999982       0.999999       0.999839        1.00000     
   1.00000       0.999727       0.998617       0.999869       0.999984       0.999998       0.999857       0.999999        1.00000       0.999622     
  0.998411       0.999761       0.999975       0.999998       0.999789        1.00000        1.00000       0.999587     
 
  0.998200       0.999560       0.999953       0.999996       0.999633       0.999999        1.00000       0.999406       0.998184       0.999601     
  0.999957       0.999996       0.999573       0.999999        1.00000       0.999400       0.998115       0.999634       0.999955       0.999996     
  0.999594       0.999998       0.999999       0.999281       0.998134       0.999602       0.999956       0.999996       0.999536       0.999999     
   1.00000       0.999382       0.998249       0.999718       0.999964       0.999996       0.999631       0.999998       0.999999       0.999329     
  0.997961       0.999513       0.999942       0.999994       0.999415       0.999999       0.999999       0.999233     
 
  0.997621       0.999214       0.999893       0.999989       0.998979       0.999997       0.999999       0.998959       0.997585       0.999278     
  0.999900       0.999987       0.998791       0.999997       0.999998       0.998917       0.997523       0.999337       0.999902       0.999988     
  0.998872       0.999996       0.999998       0.998850       0.997508       0.999279       0.999897       0.999987       0.998729       0.999996     
  0.999998       0.998865       0.997731       0.999477       0.999924       0.999989       0.999054       0.999996       0.999998       0.998960     
  0.997284       0.999149       0.999872       0.999983       0.998421       0.999996       0.999998       0.998761     
 
  0.996698       0.998773       0.999778       0.999969       0.997329       0.999991       0.999996       0.998374       0.996628       0.998838     
  0.999785       0.999965       0.996986       0.999990       0.999996       0.998283       0.996586       0.998934       0.999801       0.999965     
  0.997024       0.999990       0.999996       0.998296       0.996512       0.998836       0.999776       0.999964       0.996908       0.999988     
  0.999995       0.998162       0.996923       0.999140       0.999849       0.999972       0.997589       0.999992       0.999997       0.998497     
  0.996200       0.998676       0.999737       0.999954       0.996075       0.999989       0.999995       0.998123     
 
  0.995447       0.998305       0.999604       0.999925       0.994108       0.999980       0.999991       0.997675       0.995344       0.998352     
  0.999604       0.999919       0.993725       0.999977       0.999990       0.997514       0.995306       0.998488       0.999645       0.999916     
  0.993448       0.999978       0.999991       0.997619       0.995179       0.998345       0.999584       0.999917       0.993648       0.999973     
  0.999988       0.997316       0.995785       0.998756       0.999737       0.999936       0.994780       0.999985       0.999994       0.997978     
  0.994765       0.998168       0.999527       0.999888       0.991472       0.999972       0.999988       0.997287     
 
  0.993591       0.997790       0.999339       0.999830       0.988136       0.999959       0.999983       0.996718       0.993431       0.997812     
  0.999321       0.999820       0.987721       0.999951       0.999980       0.996445       0.993390       0.997995       0.999404       0.999804     
  0.986557       0.999956       0.999983       0.996714       0.993159       0.997802       0.999284       0.999819       0.987758       0.999944     
  0.999977       0.996172       0.994050       0.998327       0.999566       0.999858       0.989467       0.999973       0.999989       0.997359     
  0.992635       0.997611       0.999200       0.999729       0.982798       0.999937       0.999975       0.996062     
 
  0.991064       0.997261       0.998974       0.999648       0.979219       0.999926       0.999969       0.995485       0.990832       0.997252     
  0.998923       0.999633       0.978768       0.999912       0.999964       0.995060       0.990738       0.997484       0.999062       0.999588     
  0.976458       0.999923       0.999971       0.995577       0.990425       0.997236       0.998858       0.999631       0.978795       0.999901     
  0.999959       0.994677       0.991704       0.997879       0.999319       0.999716       0.981538       0.999957       0.999983       0.996600     
  0.989681       0.997034       0.998742       0.999426       0.970843       0.999883       0.999955       0.994464     
 
  0.987265       0.996669       0.998447       0.999282       0.965647       0.999878       0.999949       0.993742       0.986908       0.996622     
  0.998347       0.999254       0.965104       0.999856       0.999940       0.993127       0.986768       0.996902       0.998560       0.999198     
  0.962842       0.999880       0.999954       0.994013       0.986371       0.996582       0.998232       0.999245       0.965015       0.999836     
  0.999931       0.992528       0.988286       0.997368       0.998945       0.999471       0.971030       0.999939       0.999974       0.995543     
  0.985171       0.996367       0.998084       0.998876       0.954964       0.999809       0.999928       0.992271     
 
  0.982142       0.995979       0.997742       0.998662       0.947967       0.999812       0.999921       0.991348       0.981603       0.995886     
  0.997584       0.998600       0.946904       0.999780       0.999907       0.990515       0.981380       0.996208       0.997883       0.998632     
  0.947127       0.999834       0.999933       0.991970       0.980877       0.995798       0.997401       0.998575       0.946631       0.999748     
  0.999893       0.989649       0.983635       0.996768       0.998423       0.999123       0.958895       0.999918       0.999963       0.994145     
  0.979109       0.995551       0.997221       0.998060       0.935766       0.999723       0.999891       0.989397     
 
  0.975543       0.995113       0.996856       0.997721       0.925004       0.999728       0.999881       0.988129       0.974786       0.994942     
  0.996630       0.997611       0.923368       0.999682       0.999862       0.987051       0.974233       0.995311       0.997031       0.997902     
  0.928634       0.999784       0.999906       0.989400       0.973797       0.994779       0.996371       0.997572       0.923105       0.999638     
  0.999842       0.985951       0.977433       0.996005       0.997743       0.998670       0.944676       0.999893       0.999948       0.992337     
  0.971246       0.994470       0.996164       0.996960       0.911950       0.999623       0.999845       0.985747     
 
  0.967256       0.993988       0.995796       0.996448       0.895914       0.999621       0.999827       0.984001       0.966246       0.993677     
  0.995493       0.996327       0.894661       0.999563       0.999803       0.982721       0.965287       0.994115       0.996015       0.997005     
  0.906117       0.999724       0.999873       0.986257       0.964900       0.993410       0.995155       0.996305       0.895037       0.999508     
  0.999779       0.981448       0.969602       0.994997       0.996907       0.998105       0.927573       0.999858       0.999928       0.990035     
  0.961585       0.993004       0.994926       0.995605       0.882975       0.999508       0.999786       0.981301     
 
  0.957426       0.992533       0.994546       0.994855       0.860409       0.999489       0.999757       0.978945       0.956145       0.992000     
  0.994152       0.994824       0.861601       0.999422       0.999729       0.977595       0.954757       0.992521       0.994805       0.995945     
  0.879252       0.999646       0.999828       0.982460       0.954398       0.991577       0.993725       0.994851       0.863150       0.999357     
  0.999701       0.976199       0.960347       0.993662       0.995900       0.997427       0.907091       0.999810       0.999899       0.987161     
  0.950456       0.991051       0.993456       0.994018       0.848876       0.999369       0.999710       0.976019     
 
  0.946527       0.990694       0.993032       0.992980       0.819413       0.999328       0.999669       0.972989       0.945056       0.989835     
  0.992524       0.993154       0.825088       0.999255       0.999639       0.971702       0.943549       0.990442       0.993317       0.994706     
  0.847855       0.999542       0.999768       0.977874       0.943068       0.989174       0.991979       0.993270       0.828495       0.999180     
  0.999606       0.970201       0.950097       0.991916       0.994665       0.996625       0.882849       0.999743       0.999860       0.983654     
  0.938967       0.988522       0.991639       0.992198       0.810031       0.999193       0.999612       0.969780     
 
  0.935331       0.988443       0.991147       0.990905       0.775165       0.999136       0.999560       0.966268       0.933858       0.987133     
  0.990493       0.991319       0.785475       0.999058       0.999528       0.965048       0.932417       0.987799       0.991436       0.993257     
  0.811676       0.999402       0.999687       0.972413       0.931935       0.986124       0.989788       0.991511       0.790389       0.998965     
  0.999486       0.963339       0.939299       0.989683       0.993121       0.995678       0.854403       0.999650       0.999806       0.979471     
  0.928074       0.985350       0.989322       0.990128       0.766980       0.998970       0.999485       0.962516     
 
  0.924865       0.985752       0.988778       0.988779       0.731236       0.998909       0.999432       0.959023       0.923617       0.983839     
  0.987930       0.989319       0.743294       0.998816       0.999391       0.957621       0.922454       0.984506       0.989042       0.991569     
  0.770807       0.999215       0.999579       0.965999       0.922007       0.982328       0.987005       0.989491       0.747654       0.998694     
  0.999334       0.955474       0.928920       0.986884       0.991173       0.994553       0.821262       0.999525       0.999734       0.974569     
  0.918710       0.981448       0.986356       0.987776       0.720086       0.998684       0.999322       0.954204     
 
  0.915858       0.982548       0.985834       0.986768       0.691122       0.998650       0.999283       0.951533       0.915018       0.979918     
  0.984734       0.987194       0.700114       0.998522       0.999223       0.949460       0.914238       0.980518       0.986038       0.989652     
  0.726621       0.998973       0.999440       0.958631       0.913788       0.977730       0.983519       0.987231       0.701825       0.998360     
  0.999145       0.946649       0.919878       0.983472       0.988741       0.993213       0.783219       0.999362       0.999640       0.968821     
  0.911076       0.976776       0.982632       0.985152       0.670614       0.998326       0.999116       0.944899     
 
  0.908473       0.978840       0.982245       0.984968       0.656323       0.998359       0.999113       0.943898       0.908073       0.975349     
  0.980825       0.985069       0.658915       0.998179       0.999025       0.940660       0.907687       0.975735       0.982340       0.987565     
  0.681210       0.998678       0.999269       0.950344       0.907093       0.972216       0.979230       0.984800       0.655166       0.997964     
  0.998917       0.936931       0.912611       0.979369       0.985751       0.991663       0.741315       0.999157       0.999521       0.962092     
  0.904839       0.971263       0.978061       0.982351       0.621111       0.997900       0.998867       0.934693     
 
  0.901801       0.974612       0.977956       0.983435       0.627803       0.998048       0.998929       0.936279       0.901950       0.970162     
  0.976157       0.983017       0.621146       0.997802       0.998803       0.931311       0.902174       0.970071       0.977890       0.985352     
  0.636012       0.998342       0.999071       0.941187       0.901169       0.965705       0.974072       0.982282       0.609873       0.997521     
  0.998657       0.926339       0.906768       0.974535       0.982151       0.989936       0.697354       0.998918       0.999380       0.954426     
  0.899156       0.964850       0.972591       0.979513       0.574508       0.997424       0.998585       0.923773     
 
  0.895448       0.969741       0.972996       0.982113       0.604467       0.997731       0.998739       0.928828       0.896435       0.964355     
  0.970784       0.981026       0.586623       0.997406       0.998567       0.921489       0.897369       0.963468       0.972736       0.983127     
  0.593894       0.997985       0.998856       0.931385       0.896058       0.958239       0.968127       0.979845       0.569620       0.997051     
  0.998378       0.915030       0.902009       0.968940       0.977971       0.988095       0.653698       0.998660       0.999225       0.945971     
  0.893852       0.957507       0.966296       0.976736       0.532572       0.996925       0.998285       0.912345     
 
  0.889107       0.963943       0.967325       0.980926       0.585138       0.997428       0.998553       0.921437       0.891134       0.957724     
  0.964661       0.979129       0.555996       0.997018       0.998330       0.911130       0.892902       0.955775       0.966807       0.981024     
  0.557415       0.997631       0.998639       0.920966       0.891379       0.949741       0.961329       0.977569       0.535396       0.996584     
  0.998096       0.902937       0.897838       0.962487       0.973147       0.986293       0.614309       0.998402       0.999067       0.936829     
  0.888709       0.948998       0.959126       0.974069       0.495773       0.996432       0.997981       0.900209     
 
  0.882441       0.957016       0.960992       0.979914       0.571383       0.997159       0.998379       0.914179       0.886308       0.950077     
  0.957878       0.977434       0.531531       0.996660       0.998104       0.900446       0.888808       0.946776       0.960157       0.979057     
  0.526437       0.997299       0.998428       0.909924       0.886800       0.940063       0.953782       0.975442       0.506583       0.996140     
  0.997820       0.890094       0.894175       0.954993       0.967699       0.984624       0.581134       0.998159       0.998913       0.927145     
  0.884102       0.939100       0.951201       0.971573       0.464878       0.995968       0.997687       0.887395     
 
  0.877302       0.948369       0.954042       0.979042       0.563314       0.996919       0.998215       0.906958       0.881214       0.941283     
  0.950353       0.975938       0.513195       0.996327       0.997887       0.889345       0.884347       0.936724       0.952779       0.977210     
  0.500407       0.996982       0.998220       0.898158       0.882141       0.929847       0.945556       0.973434       0.482502       0.995713     
  0.997549       0.876442       0.890126       0.946763       0.961636       0.983075       0.553316       0.997927       0.998761       0.916855     
  0.878863       0.927862       0.942445       0.969262       0.439793       0.995529       0.997399       0.873889     
 
  0.874879       0.938593       0.946553       0.978169       0.557909       0.996685       0.998045       0.898797       0.876355       0.930727     
  0.941982       0.974435       0.496810       0.996000       0.997665       0.877413       0.879775       0.924875       0.944523       0.975387     
  0.477174       0.996666       0.998007       0.885512       0.877112       0.917825       0.936380       0.971411       0.460526       0.995284     
  0.997269       0.861833       0.885970       0.937231       0.954825       0.981571       0.528769       0.997698       0.998606       0.905836     
  0.873420       0.913645       0.932609       0.967067       0.419008       0.995097       0.997106       0.859602     
 
  0.871544       0.925174       0.938064       0.977216       0.553185       0.996432       0.997858       0.888707       0.871874       0.918220     
  0.932870       0.972843       0.480569       0.995656       0.997425       0.864529       0.875445       0.911633       0.935557       0.973499     
  0.454922       0.996332       0.997776       0.871946       0.871590       0.904306       0.926392       0.969307       0.439534       0.994831     
  0.996969       0.846247       0.882263       0.926863       0.947432       0.980111       0.507316       0.997458       0.998441       0.894207     
  0.868203       0.895763       0.921714       0.964906       0.401193       0.994648       0.996793       0.844562     
 
  0.867545       0.906686       0.928309       0.976148       0.548321       0.996136       0.997639       0.876009       0.866128       0.901604     
  0.922585       0.971166       0.464906       0.995283       0.997160       0.850590       0.870608       0.896408       0.925734       0.971543     
  0.433531       0.995969       0.997522       0.857358       0.865713       0.888867       0.915537       0.967169       0.420533       0.994341     
  0.996639       0.829733       0.878259       0.914998       0.939320       0.978754       0.490103       0.997204       0.998262       0.881989     
  0.862029       0.871296       0.909189       0.962742       0.385795       0.994163       0.996449       0.828621     
 
  0.863526       0.879814       0.916807       0.974967       0.543269       0.995787       0.997385       0.860821       0.859372       0.874762     
  0.910333       0.969449       0.450690       0.994877       0.996869       0.835760       0.864830       0.879283       0.915198       0.969546     
  0.413443       0.995575       0.997244       0.841964       0.859050       0.871651       0.903975       0.964953       0.402286       0.993811     
  0.996280       0.812458       0.873357       0.899514       0.930266       0.977481       0.476614       0.996932       0.998070       0.869272     
  0.854479       0.831144       0.893602       0.960523       0.371881       0.993639       0.996069       0.811922     
 
  0.859035       0.830899       0.900939       0.973651       0.538193       0.995367       0.997083       0.842936       0.852598       0.820309     
  0.892964       0.967698       0.439263       0.994416       0.996534       0.819163       0.858336       0.855294       0.903184       0.967598     
  0.396736       0.995149       0.996942       0.825853       0.851403       0.845457       0.890511       0.962697       0.385837       0.993239     
  0.995888       0.794504       0.867964       0.876827       0.919797       0.976223       0.465285       0.996640       0.997860       0.855922     
  0.846003       0.774199       0.874342       0.958244       0.359673       0.993071       0.995649       0.794479     
 
  0.853995       0.749456       0.877816       0.972177       0.533283       0.994867       0.996722       0.822760       0.846249       0.719863     
  0.865452       0.965793       0.429298       0.993866       0.996126       0.800054       0.851827       0.813509       0.888008       0.965703     
  0.383350       0.994695       0.996614       0.809251       0.843707       0.799322       0.873405       0.960431       0.371771       0.992630     
  0.995463       0.776155       0.862777       0.840924       0.906982       0.974899       0.454007       0.996327       0.997632       0.842017     
  0.837481       0.697034       0.850314       0.955901       0.349387       0.992454       0.995179       0.776174     
 
  0.848666       0.621875       0.839850       0.970299       0.528494       0.994241       0.996221       0.799950       0.839894       0.560861     
  0.817887       0.963371       0.420496       0.993166       0.995522       0.778014       0.844844       0.747104       0.867267       0.963783     
  0.372934       0.994193       0.996244       0.791750       0.835496       0.719684       0.848619       0.958104       0.360829       0.991967     
  0.994981       0.757193       0.857146       0.793385       0.891427       0.973512       0.443528       0.995989       0.997381       0.827520     
  0.828594       0.599750       0.819282       0.953413       0.341518       0.991742       0.994625       0.755891     
 
  0.842839       0.471700       0.788008       0.967909       0.523858       0.993465       0.995527       0.775017       0.833203       0.401912     
  0.758432       0.960387       0.412971       0.992292       0.994668       0.753688       0.837687       0.663258       0.841540       0.961809     
  0.364967       0.993631       0.995828       0.772987       0.827032       0.593441       0.811265       0.955591       0.352413       0.991221     
  0.994417       0.736985       0.851203       0.740877       0.874443       0.972121       0.434957       0.995627       0.997110       0.812574     
  0.819651       0.476455       0.776670       0.950593       0.335503       0.990890       0.993920       0.733344     
 
  0.836056       0.312361       0.717329       0.964614       0.519179       0.992427       0.994394       0.747355       0.825741       0.260935     
  0.687453       0.956604       0.405873       0.991146       0.993374       0.726695       0.830240       0.559890       0.807797       0.959644     
  0.358628       0.992966       0.995317       0.752085       0.818355       0.410106       0.747689       0.952320       0.345220       0.990263     
  0.993540       0.713647       0.845021       0.681775       0.855096       0.970722       0.428890       0.995226       0.996806       0.796515     
  0.810090       0.328579       0.715348       0.947093       0.330453       0.989821       0.992908       0.708062     
 
  0.828409       0.181003       0.633206       0.960094       0.514444       0.990987       0.992496       0.717592       0.817394       0.155075     
  0.610164       0.951911       0.399255       0.989642       0.991450       0.697894       0.822230       0.441809       0.764020       0.957153     
  0.353391       0.992178       0.994654       0.729617       0.808895       0.237374       0.663326       0.947864       0.339373       0.988952     
  0.992007       0.687535       0.838562       0.584963       0.824748       0.969169       0.424520       0.994763       0.996433       0.779067     
  0.799675       0.197158       0.640298       0.942691       0.326244       0.988454       0.991393       0.680774     
 
  0.819825       0.904461E-001  0.541105       0.954221       0.509534       0.989035       0.989614       0.685940       0.808067       0.833994E-001
  0.529209       0.946248       0.392948       0.987726       0.988790       0.667609       0.813496       0.315413       0.707645       0.954138     
  0.348810       0.991220       0.993733       0.705638       0.798399       0.115546       0.567504       0.942034       0.334129       0.987157     
  0.989542       0.659014       0.831739       0.461821       0.781735       0.967287       0.420865       0.994210       0.995937       0.759872     
  0.788281       0.107361       0.561222       0.937431       0.322389       0.986723       0.989268       0.651967     
 
  0.810231       0.399184E-001  0.445092       0.946606       0.504286       0.986233       0.985126       0.652390       0.797784       0.395862E-001
  0.443059       0.939099       0.386850       0.985088       0.984788       0.635698       0.804023       0.196964       0.638671       0.950426     
  0.344762       0.990047       0.992440       0.680371       0.786964       0.487338E-001  0.468856       0.934690       0.329016       0.984648     
  0.985739       0.628516       0.824415       0.347077       0.733922       0.965175       0.417934       0.993561       0.995322       0.739342     
  0.775923       0.509691E-001  0.477547       0.930972       0.318609       0.984448       0.986174       0.621806     
 
  0.799700       0.151335E-001  0.351824       0.936995       0.498620       0.982279       0.978532       0.617393       0.786772       0.170531E-001
  0.361488       0.930631       0.380967       0.981681       0.979412       0.603119       0.793943       0.107801       0.559928       0.945690     
  0.341082       0.988507       0.990447       0.654031       0.774779       0.181172E-001  0.373145       0.925545       0.323972       0.981110     
  0.980045       0.596445       0.816648       0.244681       0.679541       0.962665       0.415388       0.992771       0.994487       0.717769     
  0.762833       0.218098E-001  0.394636       0.923253       0.314859       0.981492       0.981862       0.590959     
 
  0.788288       0.470903E-002  0.266182       0.925123       0.492398       0.976660       0.969060       0.580945       0.775145       0.651051E-002
  0.285825       0.920672       0.375185       0.977222       0.972219       0.570043       0.783397       0.544722E-001  0.481644       0.940131     
  0.337647       0.986576       0.987740       0.627256       0.761927       0.569623E-002  0.285012       0.914371       0.318972       0.976086     
  0.971748       0.562907       0.808466       0.158480       0.618039       0.959567       0.412917       0.991801       0.993324       0.695277     
  0.749187       0.833164E-002  0.316901       0.914163       0.311013       0.977620       0.975962       0.559671     
 
  0.776029       0.118177E-002  0.193114       0.910839       0.485425       0.968786       0.955957       0.543172       0.762755       0.204209E-002
  0.216459       0.908627       0.369271       0.971156       0.962298       0.536178       0.772326       0.257476E-001  0.405621       0.933586     
  0.334405       0.984123       0.984074       0.600144       0.748279       0.145265E-002  0.208887       0.901022       0.313886       0.969093     
  0.960171       0.528206       0.799809       0.937641E-001  0.550799       0.955712       0.410498       0.990574       0.991662       0.671997     
  0.735019       0.280353E-002  0.246220       0.903518       0.306993       0.972623       0.968101       0.528121     
 
  0.762683       0.319525E-003  0.136903       0.894789       0.477716       0.958662       0.939521       0.505068       0.749636       0.536548E-003
  0.155545       0.893783       0.362917       0.962459       0.948098       0.500746       0.760906       0.108264E-001  0.333745       0.926001     
  0.331286       0.981006       0.979227       0.572877       0.734333       0.300791E-003  0.147800       0.885499       0.308492       0.959534     
  0.944585       0.492540       0.790661       0.512768E-001  0.482768       0.951132       0.408095       0.989037       0.989409       0.648341     
  0.720792       0.815183E-003  0.184402       0.891098       0.302682       0.965977       0.957545       0.496184     
 
  0.748969       0.390059E-004  0.920812E-001  0.875677       0.468790       0.944729       0.917506       0.465411       0.735276       0.841186E-004
  0.106247       0.876065       0.355950       0.950399       0.928800       0.464018       0.748459       0.403390E-002  0.267743       0.917233     
  0.328136       0.977017       0.972849       0.545659       0.718774       0.492870E-004  0.102216       0.868156       0.302720       0.947221     
  0.924988       0.456772       0.780865       0.266194E-001  0.418256       0.945985       0.405709       0.987169       0.986551       0.624951     
  0.705294       0.192832E-003  0.134568       0.877197       0.298056       0.957650       0.944380       0.464656     
 
  0.733932       0.341593E-005  0.569718E-001  0.850510       0.457329       0.923001       0.884169       0.420721       0.720175       0.110570E-004
  0.694248E-001  0.855002       0.348150       0.933876       0.902955       0.425599       0.735709       0.127699E-002  0.209578       0.907197     
  0.324872       0.971914       0.964590       0.518490       0.702693       0.857430E-005  0.689179E-001  0.848600       0.296463       0.931491     
  0.900451       0.420553       0.770865       0.131697E-001  0.359513       0.940430       0.403407       0.985005       0.983175       0.602235     
  0.689399       0.414786E-004  0.952868E-001  0.861428       0.293008       0.947063       0.927711       0.433117     
 
  0.717289       0.245863E-005  0.324908E-001  0.817235       0.441798       0.888568       0.833445       0.368704       0.704335       0.316455E-005
  0.434971E-001  0.829693       0.338940       0.910726       0.867880       0.384489       0.722871       0.377523E-003  0.162723       0.896425     
  0.321495       0.965827       0.954747       0.492219       0.686313       0.230805E-005  0.453273E-001  0.826621       0.289497       0.911524     
  0.870101       0.383807       0.760804       0.668905E-002  0.309725       0.934765       0.401178       0.982648       0.979454       0.580754     
  0.673430       0.878072E-005  0.655912E-001  0.843605       0.287402       0.933540       0.906719       0.401462     
 
  0.699138       0.245863E-005  0.170248E-001  0.775937       0.421566       0.839424       0.764337       0.311330       0.688010       0.176813E-005
  0.261709E-001  0.800841       0.328362       0.880938       0.824292       0.342155       0.710134       0.109119E-003  0.126345       0.885299     
  0.318076       0.958935       0.943709       0.467444       0.669998       0.798256E-006  0.295605E-001  0.803298       0.282047       0.888192     
  0.835540       0.347998       0.750802       0.345606E-002  0.267573       0.929049       0.399028       0.980094       0.975431       0.560686     
  0.657682       0.184538E-005  0.445705E-001  0.824666       0.281426       0.917714       0.882551       0.370788     
 
  0.680208       0.245863E-005  0.848522E-002  0.728809       0.397412       0.778215       0.682175       0.253579       0.671508       0.176813E-005
  0.153275E-001  0.768833       0.316446       0.844766       0.773068       0.299734       0.697613       0.374680E-004  0.988544E-001  0.874190     
  0.314636       0.951427       0.931817       0.444377       0.653988       0.798256E-006  0.194112E-001  0.779078       0.274254       0.862232     
  0.797991       0.313900       0.740882       0.179776E-002  0.232463       0.923494       0.396966       0.977402       0.971228       0.542172     
  0.642470       0.136790E-005  0.304723E-001  0.805129       0.275257       0.900249       0.856319       0.341814     
 
  0.661085       0.245863E-005  0.414554E-002  0.679266       0.371166       0.710986       0.596442       0.201126       0.654639       0.176813E-005
  0.869116E-002  0.732986       0.302748       0.800578       0.712895       0.256923       0.685382       0.137585E-004  0.776379E-001  0.862953     
  0.311130       0.943283       0.919052       0.422760       0.638175       0.798256E-006  0.126250E-001  0.753219       0.265831       0.832355     
  0.756121       0.280635       0.731252       0.958547E-003  0.203129       0.918138       0.395016       0.974786       0.967097       0.525217     
  0.627548       0.136790E-005  0.205845E-001  0.784130       0.268629       0.879550       0.826139       0.313257     
 
  0.642808       0.245863E-005  0.205879E-002  0.631890       0.345469       0.645800       0.517614       0.158502       0.638237       0.176813E-005
  0.496146E-002  0.696812       0.288511       0.753549       0.651308       0.218111       0.673801       0.601726E-005  0.619994E-001  0.852136     
  0.307675       0.934937       0.906129       0.403149       0.623248       0.798256E-006  0.839276E-002  0.728169       0.257519       0.802080     
  0.714895       0.250912       0.722066       0.550617E-003  0.179740       0.913094       0.393158       0.972167       0.963012       0.510050     
  0.613567       0.136790E-005  0.143254E-001  0.764079       0.262214       0.858802       0.796608       0.287768     
 
  0.625503       0.245863E-005  0.101723E-002  0.586312       0.320323       0.582762       0.445269       0.123820       0.622587       0.176813E-005
  0.283154E-002  0.660792       0.273972       0.704888       0.590141       0.183760       0.663049       0.198733E-005  0.500249E-001  0.841667     
  0.304288       0.926387       0.893010       0.385243       0.609322       0.798256E-006  0.561567E-002  0.703551       0.249231       0.771107     
  0.674006       0.224197       0.713499       0.317601E-003  0.160895       0.908447       0.391434       0.969596       0.959026       0.496665     
  0.600857       0.136790E-005  0.101243E-001  0.745084       0.256068       0.838428       0.768429       0.265408     
 
  0.608356       0.245863E-005  0.491786E-003  0.538946       0.293859       0.517072       0.373851       0.937318E-001  0.607628       0.176813E-005
  0.159728E-002  0.624394       0.259073       0.654506       0.528990       0.152820       0.653276       0.983841E-006  0.408877E-001  0.831566     
  0.300989       0.917719       0.879857       0.368952       0.596244       0.798256E-006  0.370043E-002  0.678174       0.240655       0.737944     
  0.631171       0.198815       0.705755       0.204093E-003  0.146254       0.904500       0.389939       0.967456       0.955752       0.485363     
  0.589043       0.136790E-005  0.704402E-002  0.725746       0.249851       0.816658       0.738676       0.244089     
 
  0.593078       0.245863E-005  0.253105E-003  0.498469       0.271111       0.462284       0.317520       0.724096E-001  0.593806       0.176813E-005
  0.935244E-003  0.590213       0.244856       0.606611       0.473082       0.127136       0.644514       0.578369E-006  0.340145E-001  0.822233     
  0.297891       0.909342       0.867268       0.354551       0.584295       0.798256E-006  0.249615E-002  0.654115       0.232422       0.705696     
  0.590639       0.176694       0.698827       0.141306E-003  0.134884       0.901110       0.388627       0.965576       0.952909       0.475847     
  0.578383       0.136790E-005  0.503786E-002  0.707857       0.244044       0.795893       0.710862       0.225564     
 
  0.579328       0.245863E-005  0.140981E-003  0.462900       0.251015       0.415110       0.271456       0.566798E-001  0.581374       0.176813E-005
  0.585544E-003  0.559454       0.231898       0.563374       0.424435       0.106635       0.636746       0.358770E-006  0.289064E-001  0.813866     
  0.295061       0.901562       0.855686       0.342127       0.573575       0.798256E-006  0.174348E-002  0.632183       0.224823       0.675773     
  0.553934       0.158039       0.692739       0.104206E-003  0.126023       0.898251       0.387481       0.963981       0.950500       0.467951     
  0.568833       0.136790E-005  0.371066E-002  0.691809       0.238776       0.776766       0.685684       0.209828     
 
  0.567289       0.245863E-005  0.870018E-004  0.432449       0.233779       0.375652       0.234749       0.452591E-001  0.570453       0.176813E-005
  0.393879E-003  0.532520       0.220483       0.525627       0.383446       0.906545E-001  0.629949       0.232707E-006  0.251217E-001  0.806581     
  0.292584       0.894597       0.845413       0.331658       0.564149       0.798256E-006  0.126960E-002  0.612823       0.218073       0.649084     
  0.521958       0.142759       0.687445       0.809925E-004  0.119091       0.895855       0.386501       0.962623       0.948459       0.461467     
  0.560435       0.136790E-005  0.283451E-002  0.677857       0.234187       0.759843       0.663787       0.196828     
 
  0.557444       0.245863E-005  0.624699E-004  0.407964       0.219884       0.344596       0.207071       0.373330E-001  0.561521       0.176813E-005
  0.292712E-003  0.510478       0.211074       0.494896       0.351101       0.788594E-001  0.624480       0.159842E-006  0.224282E-001  0.800662     
  0.290550       0.888819       0.836957       0.323368       0.556496       0.798256E-006  0.980684E-003  0.596878       0.212478       0.626955     
  0.495968       0.130950       0.683182       0.666503E-004  0.113946       0.893977       0.385728       0.961557       0.946865       0.456435     
  0.553791       0.136790E-005  0.229119E-002  0.667078       0.230610       0.746743       0.647082       0.187147     
 
 )
