TRANSMISSION%TAU_TOTAL = (
  0.542518       0.394962       0.341744E-020  0.758854       0.564157       0.418535       0.192875E-021  0.745587       0.872410       0.807881     
  0.236218E-008  0.835436       0.627554       0.489618       0.192875E-021  0.743811       0.963140       0.947433       0.541479E-003  0.909294     
  0.710086       0.592669       0.107761E-023  0.743525     
 )
TRANSMISSION%TAU_LAYERS = (
   1.00000        1.00000        1.00000        1.00000        1.00000        1.00000        1.00000        1.00000        1.00000        1.00000     
   1.00000        1.00000        1.00000        1.00000        1.00000        1.00000        1.00000        1.00000        1.00000        1.00000     
   1.00000        1.00000        1.00000        1.00000     
 
   1.00000        1.00000       0.999990        1.00000        1.00000        1.00000       0.999990        1.00000        1.00000        1.00000     
  0.999990        1.00000        1.00000        1.00000       0.999990        1.00000        1.00000        1.00000       0.999992        1.00000     
   1.00000        1.00000       0.999986        1.00000     
 
   1.00000        1.00000       0.999958        1.00000        1.00000        1.00000       0.999961        1.00000        1.00000        1.00000     
  0.999959        1.00000        1.00000        1.00000       0.999960        1.00000        1.00000        1.00000       0.999968        1.00000     
   1.00000        1.00000       0.999945        1.00000     
 
   1.00000        1.00000       0.999874        1.00000        1.00000        1.00000       0.999888        1.00000        1.00000        1.00000     
  0.999887        1.00000        1.00000        1.00000       0.999890        1.00000       0.999999        1.00000       0.999911        1.00000     
   1.00000        1.00000       0.999850        1.00000     
 
  0.999999        1.00000       0.999708       0.999999       0.999999        1.00000       0.999743       0.999999       0.999999       0.999999     
  0.999749       0.999999       0.999999        1.00000       0.999747       0.999999       0.999999       0.999999       0.999801       0.999999     
  0.999999       0.999999       0.999671       0.999999     
 
  0.999997       0.999998       0.999430       0.999999       0.999997       0.999998       0.999488       0.999998       0.999997       0.999998     
  0.999514       0.999999       0.999997       0.999998       0.999493       0.999998       0.999997       0.999998       0.999615       0.999999     
  0.999997       0.999998       0.999378       0.999998     
 
  0.999993       0.999996       0.999041       0.999997       0.999992       0.999995       0.999107       0.999997       0.999992       0.999995     
  0.999171       0.999997       0.999991       0.999994       0.999109       0.999996       0.999994       0.999996       0.999336       0.999998     
  0.999991       0.999994       0.998964       0.999996     
 
  0.999984       0.999991       0.998607       0.999994       0.999981       0.999989       0.998661       0.999994       0.999983       0.999990     
  0.998772       0.999994       0.999978       0.999987       0.998658       0.999993       0.999988       0.999993       0.999005       0.999996     
  0.999978       0.999987       0.998497       0.999992     
 
  0.999968       0.999981       0.998120       0.999989       0.999962       0.999978       0.998151       0.999988       0.999967       0.999981     
  0.998322       0.999988       0.999955       0.999974       0.998145       0.999987       0.999980       0.999988       0.998629       0.999992     
  0.999953       0.999973       0.997974       0.999984     
 
  0.999945       0.999967       0.997630       0.999978       0.999933       0.999960       0.997628       0.999977       0.999945       0.999968     
  0.997860       0.999977       0.999923       0.999955       0.997613       0.999975       0.999970       0.999981       0.998238       0.999984     
  0.999916       0.999951       0.997442       0.999968     
 
  0.999912       0.999945       0.997118       0.999959       0.999893       0.999934       0.997078       0.999955       0.999918       0.999950     
  0.997372       0.999958       0.999876       0.999925       0.997038       0.999952       0.999958       0.999972       0.997816       0.999971     
  0.999869       0.999921       0.996879       0.999940     
 
  0.999869       0.999914       0.996575       0.999925       0.999843       0.999899       0.996497       0.999919       0.999889       0.999927     
  0.996845       0.999925       0.999816       0.999883       0.996416       0.999912       0.999945       0.999960       0.997358       0.999950     
  0.999814       0.999882       0.996264       0.999894     
 
  0.999814       0.999872       0.995952       0.999871       0.999779       0.999850       0.995815       0.999860       0.999855       0.999899     
  0.996224       0.999877       0.999743       0.999830       0.995680       0.999848       0.999927       0.999945       0.996820       0.999917     
  0.999749       0.999833       0.995518       0.999822     
 
  0.999744       0.999816       0.995189       0.999791       0.999699       0.999789       0.994953       0.999774       0.999813       0.999866     
  0.995446       0.999806       0.999654       0.999764       0.994747       0.999755       0.999901       0.999925       0.996150       0.999869     
  0.999671       0.999773       0.994561       0.999719     
 
  0.999652       0.999746       0.994229       0.999674       0.999599       0.999716       0.993839       0.999651       0.999753       0.999824     
  0.994431       0.999704       0.999545       0.999687       0.993526       0.999624       0.999863       0.999898       0.995286       0.999799     
  0.999569       0.999699       0.993309       0.999571     
 
  0.999535       0.999659       0.993023       0.999512       0.999474       0.999629       0.992404       0.999481       0.999669       0.999769     
  0.993106       0.999558       0.999409       0.999596       0.991926       0.999442       0.999807       0.999863       0.994162       0.999697     
  0.999433       0.999607       0.991681       0.999362     
 
  0.999386       0.999558       0.991541       0.999288       0.999316       0.999526       0.990611       0.999248       0.999551       0.999698     
  0.991416       0.999351       0.999234       0.999486       0.989892       0.999189       0.999727       0.999817       0.992730       0.999552     
  0.999250       0.999492       0.989620       0.999072     
 
  0.999201       0.999441       0.989764       0.998992       0.999114       0.999403       0.988419       0.998932       0.999389       0.999605     
  0.989289       0.999066       0.999006       0.999349       0.987350       0.998842       0.999617       0.999756       0.990925       0.999349     
  0.999007       0.999348       0.987061       0.998677     
 
  0.998977       0.999311       0.987644       0.998614       0.998860       0.999255       0.985787       0.998521       0.999176       0.999487     
  0.986675       0.998690       0.998717       0.999182       0.984237       0.998387       0.999471       0.999677       0.988694       0.999079     
  0.998695       0.999169       0.983966       0.998160     
 
  0.998712       0.999168       0.985180       0.998142       0.998554       0.999084       0.982679       0.998002       0.998911       0.999342     
  0.983482       0.998210       0.998366       0.998984       0.980448       0.997809       0.999286       0.999577       0.985961       0.998730     
  0.998313       0.998956       0.980261       0.997506     
 
  0.998419       0.999014       0.982370       0.997563       0.998207       0.998893       0.979115       0.997362       0.998604       0.999173     
  0.979633       0.997614       0.997964       0.998757       0.975900       0.997095       0.999069       0.999457       0.982681       0.998294     
  0.997878       0.998715       0.975895       0.996701     
 
  0.998112       0.998856       0.979137       0.996862       0.997837       0.998688       0.975090       0.996590       0.998273       0.998987     
  0.975100       0.996894       0.997531       0.998512       0.970630       0.996237       0.998833       0.999322       0.978843       0.997763     
  0.997412       0.998454       0.970846       0.995733     
 
  0.997812       0.998697       0.975321       0.996010       0.997466       0.998478       0.970457       0.995659       0.997939       0.998793     
  0.969701       0.996031       0.997091       0.998256       0.964481       0.995211       0.998592       0.999180       0.974317       0.997123     
  0.996944       0.998184       0.964895       0.994574     
 
  0.997536       0.998544       0.970768       0.994988       0.997115       0.998269       0.965090       0.994558       0.997618       0.998598     
  0.963274       0.995010       0.996664       0.997998       0.957449       0.993997       0.998361       0.999037       0.968955       0.996366     
  0.996493       0.997912       0.957907       0.993208     
 
  0.997280       0.998391       0.965146       0.993782       0.996779       0.998061       0.958894       0.993259       0.997305       0.998397     
  0.956078       0.993808       0.996245       0.997733       0.950046       0.992573       0.998135       0.998890       0.963064       0.995474     
  0.996057       0.997634       0.949918       0.991605     
 
  0.997026       0.998227       0.958754       0.992387       0.996441       0.997840       0.951469       0.991739       0.996987       0.998183     
  0.947596       0.992400       0.995816       0.997451       0.941314       0.990906       0.997906       0.998734       0.956243       0.994429     
  0.995617       0.997342       0.939798       0.989733     
 
  0.996748       0.998040       0.949662       0.990789       0.996083       0.997597       0.942663       0.990007       0.996647       0.997949     
  0.938110       0.990796       0.995359       0.997143       0.931485       0.988997       0.997664       0.998566       0.948838       0.993237     
  0.995152       0.997024       0.926961       0.987603     
 
  0.996426       0.997819       0.936738       0.988986       0.995692       0.997327       0.930886       0.988030       0.996274       0.997688     
  0.927187       0.988975       0.994860       0.996804       0.920256       0.986833       0.997402       0.998383       0.940388       0.991883     
  0.994645       0.996672       0.909141       0.985182     
 
  0.996051       0.997559       0.917310       0.986998       0.995264       0.997029       0.911446       0.985817       0.995867       0.997403     
  0.914900       0.986943       0.994316       0.996433       0.907709       0.984423       0.997118       0.998185       0.929302       0.990366     
  0.994093       0.996283       0.879253       0.982470     
 
  0.995606       0.997249       0.880481       0.984795       0.994778       0.996684       0.870459       0.983370       0.995425       0.997092     
  0.897433       0.984688       0.993726       0.996028       0.888309       0.981743       0.996811       0.997970       0.912890       0.988680     
  0.993492       0.995852       0.835829       0.979449     
 
  0.995083       0.996874       0.816602       0.982381       0.994206       0.996261       0.791087       0.980703       0.994948       0.996753     
  0.866206       0.982237       0.993094       0.995587       0.853294       0.978828       0.996482       0.997735       0.886426       0.986848     
  0.992838       0.995367       0.775245       0.976157     
 
  0.994437       0.996353       0.710031       0.979680       0.993487       0.995632       0.656778       0.977685       0.994422       0.996370     
  0.814339       0.979555       0.992404       0.995087       0.790023       0.975631       0.996124       0.997475       0.850280       0.984842     
  0.992087       0.994794       0.695233       0.972556     
 
  0.993647       0.995627       0.577665       0.976678       0.992599       0.994739       0.513372       0.974307       0.993833       0.995939     
  0.746664       0.976683       0.991629       0.994501       0.685550       0.972169       0.995740       0.997196       0.809675       0.982690     
  0.991199       0.994062       0.588314       0.968639     
 
  0.992604       0.994441       0.426055       0.973183       0.991449       0.993386       0.373811       0.970429       0.993144       0.995408     
  0.659674       0.973569       0.990649       0.993584       0.523543       0.968260       0.995316       0.996882       0.762813       0.980374     
  0.990100       0.993008       0.450022       0.964238     
 
  0.991170       0.992459       0.284100       0.969058       0.989950       0.991379       0.254057       0.965999       0.992336       0.994716     
  0.555355       0.970195       0.989325       0.991984       0.352591       0.963711       0.994831       0.996497       0.682568       0.977888     
  0.988713       0.991429       0.311829       0.959259     
 
  0.989239       0.989456       0.167843       0.964224       0.988051       0.988607       0.158429       0.960985       0.991364       0.993754     
  0.435503       0.966477       0.987531       0.989416       0.208427       0.958384       0.994260       0.995981       0.575281       0.975182     
  0.986971       0.989217       0.200586       0.953685     
 
  0.986473       0.984796       0.867650E-001  0.958477       0.985445       0.984449       0.871830E-001  0.955155       0.990184       0.992404     
  0.310655       0.962350       0.985036       0.985466       0.107836       0.952169       0.993596       0.995342       0.469308       0.972276     
  0.984699       0.986002       0.115032       0.947361     
 
  0.982579       0.977973       0.382298E-001  0.951643       0.982088       0.978879       0.434023E-001  0.948536       0.988646       0.990328     
  0.199778       0.957685       0.981532       0.979575       0.486436E-001  0.944895       0.992796       0.994474       0.365724       0.969133     
  0.981761       0.981536       0.595785E-001  0.940240     
 
  0.977043       0.968211       0.139795E-001  0.943573       0.977699       0.971448       0.189256E-001  0.941054       0.986726       0.987516     
  0.119146       0.952535       0.976563       0.971025       0.184098E-001  0.936416       0.991823       0.993265       0.267551       0.965712     
  0.977925       0.975443       0.272874E-001  0.932273     
 
  0.969282       0.954749       0.445282E-002  0.934147       0.971726       0.961231       0.710879E-002  0.932404       0.984295       0.983718     
  0.657897E-001  0.946849       0.969646       0.959131       0.587701E-002  0.926610       0.990598       0.991538       0.181635       0.961958     
  0.972982       0.967342       0.110436E-001  0.923381     
 
  0.959294       0.937904       0.130951E-002  0.923692       0.963148       0.946657       0.217226E-002  0.922294       0.981212       0.978709     
  0.325479E-001  0.940602       0.960179       0.943167       0.150672E-002  0.915558       0.989072       0.989200       0.114715       0.957871     
  0.966412       0.956495       0.384391E-002  0.913495     
 
  0.945527       0.915404       0.223985E-003  0.911687       0.951235       0.926910       0.459255E-003  0.910565       0.977268       0.972135     
  0.144189E-001  0.933655       0.947976       0.923144       0.332113E-003  0.903281       0.987218       0.986242       0.687166E-001  0.953454     
  0.958185       0.942997       0.116631E-002  0.902570     
 
  0.923974       0.881440       0.115204E-004  0.897094       0.934869       0.900533       0.528390E-004  0.897302       0.972222       0.963642     
  0.570506E-002  0.926026       0.932355       0.898124       0.448449E-004  0.889959       0.985074       0.982754       0.391483E-001  0.948785     
  0.947714       0.925938       0.310397E-003  0.890704     
 
  0.889665       0.829933       0.152260E-008  0.879405       0.911865       0.864834       0.304554E-006  0.882299       0.966198       0.953541     
  0.219314E-002  0.917969       0.912487       0.867240       0.247776E-006  0.875611       0.982740       0.978916       0.227593E-001  0.944001     
  0.934316       0.904501       0.290877E-004  0.877912     
 
  0.840522       0.759972       0.610034E-011  0.858986       0.882189       0.820577       0.368619E-008  0.865936       0.959372       0.942234     
  0.820079E-003  0.909683       0.889228       0.832130       0.534364E-008  0.860727       0.980211       0.974772       0.132916E-001  0.939173     
  0.918611       0.879859       0.359454E-005  0.864600     
 
  0.779165       0.677016       0.843579E-014  0.836796       0.846080       0.768680       0.103792E-010  0.848496       0.951930       0.930068     
  0.334208E-003  0.901386       0.863321       0.794045       0.400758E-010  0.845606       0.977547       0.970448       0.782773E-002  0.934429     
  0.901271       0.853150       0.434771E-006  0.851086     
 
  0.711680       0.590669       0.341744E-020  0.814053       0.801873       0.707861       0.355862E-013  0.829953       0.943850       0.917027     
  0.129957E-003  0.893090       0.833465       0.751655       0.287167E-011  0.830168       0.974958       0.966198       0.466354E-002  0.929808     
  0.880691       0.822485       0.861925E-007  0.837256     
 
  0.646192       0.511471       0.341744E-020  0.792305       0.754750       0.645740       0.355862E-013  0.811627       0.935562       0.903839     
  0.448659E-004  0.885103       0.803186       0.709977       0.937420E-012  0.815377       0.972365       0.962001       0.287929E-002  0.925403     
  0.860055       0.792515       0.272227E-007  0.824077     
 
  0.582809       0.438961       0.341744E-020  0.771485       0.705919       0.584170       0.355862E-013  0.793801       0.927065       0.890465     
  0.137611E-004  0.877449       0.772179       0.668703       0.937420E-012  0.801172       0.969819       0.957910       0.178194E-002  0.921271     
  0.839785       0.763953       0.272227E-007  0.811692     
 
  0.516706       0.367571       0.341744E-020  0.750378       0.655306       0.522730       0.194780E-013  0.776291       0.918445       0.877068     
  0.411102E-005  0.870159       0.738951       0.625520       0.241574E-013  0.787148       0.967698       0.954549       0.121580E-002  0.917540     
  0.818110       0.733827       0.131860E-008  0.799590     
 
  0.461579       0.311405       0.192875E-021  0.731806       0.607146       0.466666       0.192875E-021  0.760001       0.910110       0.864257     
  0.105680E-005  0.863473       0.706612       0.584716       0.118060E-018  0.774099       0.965834       0.951632       0.870414E-003  0.914218     
  0.797424       0.705695       0.275326E-011  0.788510     
 
  0.414110       0.265589       0.192875E-021  0.715263       0.563643       0.417970       0.192875E-021  0.745410       0.902365       0.852479     
  0.290471E-006  0.857510       0.676582       0.547809       0.192875E-021  0.762389       0.964252       0.949160       0.657124E-003  0.911331     
  0.778356       0.680253       0.392552E-014  0.778679     
 
  0.374412       0.229163       0.192875E-021  0.700933       0.525647       0.377012       0.192875E-021  0.732709       0.895428       0.842038     
  0.939162E-007  0.852329       0.649782       0.515695       0.192875E-021  0.752188       0.962904       0.947067       0.519697E-003  0.908862     
  0.761478       0.658146       0.144751E-016  0.770178     
 
  0.343171       0.201754       0.192875E-021  0.689144       0.494704       0.344739       0.192875E-021  0.722233       0.889672       0.833448     
  0.377300E-007  0.848114       0.627554       0.489618       0.192875E-021  0.743811       0.961845       0.945432       0.433128E-003  0.906877     
  0.748416       0.641288       0.248615E-018  0.763490     
 
 )
