TRANSMISSION%TAU_TOTAL = (
  0.678237E-008  0.513467E-008  0.279070E-007  0.334938E-008  0.115706E-007  0.372258E-008  0.113722E-014  0.257831E-001  0.102074       0.547720     
  0.533016       0.745922E-003  0.790861       0.697306       0.120670E-008  0.848067E-009  0.109969E-007  0.724251E-009  0.249431E-008  0.959859E-009
  0.368398E-013  0.170868E-001  0.105898       0.576292       0.490788       0.179048E-003  0.786135       0.689961       0.538562E-008  0.402723E-008
  0.555714E-007  0.233086E-008  0.837045E-008  0.143614E-007  0.166619E-011  0.596337E-001  0.476124       0.899351       0.643369       0.214160E-003
  0.899895       0.835056       0.124865E-009  0.855062E-010  0.434782E-008  0.634046E-010  0.250805E-009  0.283486E-009  0.445542E-015  0.156102E-001
  0.147726       0.646149       0.491539       0.541103E-004  0.795459       0.697427       0.511724E-006  0.305088E-006  0.154243E-005  0.322132E-006
  0.822454E-006  0.946958E-006  0.516859E-007  0.210903       0.788357       0.976998       0.747725       0.422780E-002  0.963035       0.934836     
  0.115501E-010  0.779180E-011  0.695686E-009  0.180252E-011  0.108875E-010  0.589121E-010  0.168137E-017  0.105898E-001  0.195256       0.745992     
  0.537679       0.661295E-005  0.809531       0.717420     
 )
TRANSMISSION%TAU_LAYERS = (
   1.00000        1.00000        1.00000        1.00000        1.00000        1.00000        1.00000        1.00000        1.00000        1.00000     
   1.00000        1.00000        1.00000        1.00000        1.00000        1.00000        1.00000        1.00000        1.00000        1.00000     
   1.00000        1.00000        1.00000        1.00000        1.00000        1.00000        1.00000        1.00000        1.00000        1.00000     
   1.00000        1.00000        1.00000        1.00000        1.00000        1.00000        1.00000        1.00000        1.00000        1.00000     
   1.00000        1.00000        1.00000        1.00000        1.00000        1.00000        1.00000        1.00000        1.00000        1.00000     
   1.00000        1.00000        1.00000        1.00000        1.00000        1.00000        1.00000        1.00000        1.00000        1.00000     
   1.00000        1.00000        1.00000        1.00000        1.00000        1.00000        1.00000        1.00000        1.00000        1.00000     
   1.00000        1.00000        1.00000        1.00000        1.00000        1.00000        1.00000        1.00000        1.00000        1.00000     
   1.00000        1.00000        1.00000        1.00000     
 
  0.999602       0.993643       0.989786       0.999467       0.999367       0.998012       0.998530       0.999997        1.00000        1.00000     
  0.999997       0.999878        1.00000        1.00000       0.999621       0.993392       0.990349       0.999510       0.999427       0.998077     
  0.998665       0.999997        1.00000        1.00000       0.999998       0.999896        1.00000        1.00000       0.999497       0.993551     
  0.987664       0.999288       0.999145       0.997693       0.998116       0.999994        1.00000        1.00000       0.999996       0.999816     
   1.00000        1.00000       0.999602       0.993027       0.990190       0.999495       0.999420       0.998042       0.998646       0.999997     
   1.00000        1.00000       0.999998       0.999894        1.00000        1.00000       0.999583       0.994554       0.988251       0.999368     
  0.999209       0.997821       0.998248       0.999994        1.00000        1.00000       0.999996       0.999835        1.00000        1.00000     
  0.999388       0.992376       0.986904       0.999187       0.999064       0.997555       0.997937       0.999994        1.00000        1.00000     
  0.999995       0.999791        1.00000        1.00000     
 
  0.998767       0.988612       0.983513       0.998502       0.998420       0.996922       0.997148       0.999988        1.00000        1.00000     
  0.999993       0.999576        1.00000        1.00000       0.998800       0.988064       0.984296       0.998584       0.998553       0.997075     
  0.997261       0.999990        1.00000        1.00000       0.999995       0.999616        1.00000        1.00000       0.998483       0.988537     
  0.980434       0.998093       0.997905       0.996309       0.996719       0.999980       0.999999        1.00000       0.999991       0.999407     
   1.00000        1.00000       0.998737       0.987334       0.984280       0.998540       0.998542       0.997075       0.997234       0.999990     
   1.00000        1.00000       0.999996       0.999609        1.00000        1.00000       0.998737       0.990461       0.980550       0.998276     
  0.998026       0.996358       0.996817       0.999980       0.999999        1.00000       0.999990       0.999463        1.00000        1.00000     
  0.998162       0.986248       0.980059       0.997834       0.997720       0.996223       0.996551       0.999979       0.999999        1.00000     
  0.999989       0.999331        1.00000        1.00000     
 
  0.997084       0.981658       0.976005       0.996831       0.996731       0.995285       0.996073       0.999966       0.999998        1.00000     
  0.999982       0.998939        1.00000        1.00000       0.997057       0.980660       0.976718       0.996842       0.996806       0.995446     
  0.996112       0.999968       0.999998        1.00000       0.999983       0.998972        1.00000        1.00000       0.996595       0.981625     
  0.971817       0.996319       0.996092       0.994354       0.995757       0.999951       0.999997        1.00000       0.999973       0.998658     
   1.00000        1.00000       0.996882       0.979374       0.976582       0.996717       0.996725       0.995420       0.996066       0.999967     
  0.999998        1.00000       0.999983       0.998939        1.00000        1.00000       0.997168       0.985007       0.971895       0.996659     
  0.996322       0.994436       0.995830       0.999951       0.999996        1.00000       0.999969       0.998787        1.00000        1.00000     
  0.995892       0.977590       0.971292       0.995854       0.995737       0.994193       0.995614       0.999948       0.999997        1.00000     
  0.999968       0.998496        1.00000        1.00000     
 
  0.994190       0.971618       0.964869       0.994649       0.994575       0.992622       0.995261       0.999919       0.999994        1.00000     
  0.999937       0.997877        1.00000        1.00000       0.993963       0.970017       0.964686       0.994503       0.994476       0.992571     
  0.995244       0.999917       0.999994        1.00000       0.999930       0.997839        1.00000        1.00000       0.993553       0.971572     
  0.960382       0.994189       0.994068       0.991617       0.995058       0.999897       0.999991        1.00000       0.999917       0.997533     
   1.00000        1.00000       0.993586       0.967993       0.964106       0.994275       0.994303       0.992423       0.995198       0.999914     
  0.999994        1.00000       0.999927       0.997754        1.00000        1.00000       0.994689       0.977065       0.961469       0.994798     
  0.994513       0.991980       0.995137       0.999904       0.999991        1.00000       0.999915       0.997812        1.00000        1.00000     
  0.992290       0.965227       0.959255       0.993485       0.993543       0.991241       0.994941       0.999889       0.999991        1.00000     
  0.999895       0.997252        1.00000        1.00000     
 
  0.989840       0.957556       0.948788       0.992017       0.992191       0.988932       0.994380       0.999830       0.999982        1.00000     
  0.999785       0.996357       0.999999        1.00000       0.989321       0.955296       0.947267       0.991709       0.991940       0.988598     
  0.994301       0.999818       0.999980        1.00000       0.999746       0.996212       0.999999        1.00000       0.989220       0.957441     
  0.945121       0.991671       0.991834       0.988209       0.994224       0.999805       0.999977        1.00000       0.999740       0.996040     
  0.999999        1.00000       0.988629       0.952500       0.945384       0.991319       0.991621       0.988182       0.994193       0.999807     
  0.999978        1.00000       0.999738       0.996015       0.999999        1.00000       0.991116       0.965444       0.948553       0.992639     
  0.992593       0.989058       0.994406       0.999828       0.999980        1.00000       0.999769       0.996543       0.999999        1.00000     
  0.987335       0.948753       0.942327       0.990656       0.990999       0.987420       0.993982       0.999782       0.999974        1.00000     
  0.999667       0.995588       0.999999       0.999999     
 
  0.984198       0.938969       0.923832       0.988746       0.988889       0.984198       0.992679       0.999667       0.999949       0.999999     
  0.999338       0.994358       0.999999       0.999999       0.983372       0.936105       0.920014       0.988250       0.988376       0.983568     
  0.992437       0.999635       0.999942       0.999999       0.999243       0.994061       0.999998       0.999999       0.983729       0.938759     
  0.921437       0.988517       0.988620       0.983783       0.992561       0.999641       0.999943       0.999999       0.999232       0.994125     
  0.999998       0.999999       0.982254       0.932625       0.914694       0.987597       0.987692       0.982741       0.992100       0.999600     
  0.999934       0.999999       0.999216       0.993641       0.999998       0.999999       0.986417       0.949198       0.929704       0.989947     
  0.990007       0.985319       0.993126       0.999701       0.999955       0.999999       0.999372       0.994952       0.999999       0.999999     
  0.981253       0.928073       0.913812       0.987077       0.987101       0.982225       0.991878       0.999579       0.999932       0.999999     
  0.999028       0.993347       0.999998       0.999999     
 
  0.978116       0.917782       0.888195       0.984847       0.984430       0.978329       0.989750       0.999400       0.999887       0.999999     
  0.998352       0.992050       0.999997       0.999998       0.976899       0.914384       0.880865       0.984059       0.983568       0.977317     
  0.989238       0.999334       0.999870       0.999998       0.998195       0.991550       0.999997       0.999998       0.977785       0.917504     
  0.886993       0.984695       0.984240       0.978066       0.989680       0.999368       0.999880       0.999999       0.998143       0.991892     
  0.999997       0.999998       0.975345       0.910238       0.871778       0.983069       0.982506       0.976080       0.988590       0.999259     
  0.999850       0.999998       0.998134       0.990915       0.999996       0.999998       0.981339       0.929893       0.903908       0.986824     
  0.986586       0.980655       0.990966       0.999510       0.999914       0.999999       0.998588       0.993204       0.999998       0.999999     
  0.974518       0.904985       0.871083       0.982530       0.981797       0.975348       0.988216       0.999213       0.999844       0.999998     
  0.997568       0.990651       0.999996       0.999998     
 
  0.970756       0.891424       0.836509       0.979334       0.978227       0.969610       0.984702       0.998929       0.999769       0.999997     
  0.996235       0.989309       0.999995       0.999997       0.968869       0.887250       0.824915       0.978056       0.976929       0.967972     
  0.983764       0.998800       0.999731       0.999996       0.995958       0.988575       0.999994       0.999997       0.970828       0.891022     
  0.838297       0.979405       0.978233       0.969588       0.984784       0.998888       0.999763       0.999997       0.995752       0.989332     
  0.999995       0.999997       0.966781       0.882053       0.812946       0.976653       0.975523       0.966169       0.982714       0.998678     
  0.999696       0.999995       0.995901       0.987791       0.999993       0.999997       0.975890       0.905780       0.867707       0.982833     
  0.981879       0.973992       0.987289       0.999205       0.999847       0.999998       0.997005       0.991292       0.999996       0.999998     
  0.965794       0.875534       0.810235       0.975811       0.974443       0.964759       0.981947       0.998513       0.999665       0.999996     
  0.994215       0.987469       0.999993       0.999996     
 
  0.961948       0.859167       0.774825       0.972080       0.970328       0.957672       0.977495       0.998196       0.999582       0.999995     
  0.992500       0.986437       0.999991       0.999995       0.959123       0.853825       0.758717       0.970177       0.968440       0.955103     
  0.975962       0.997977       0.999513       0.999993       0.992013       0.985445       0.999990       0.999994       0.962783       0.858458     
  0.781230       0.972563       0.970670       0.958099       0.977891       0.998135       0.999586       0.999996       0.991638       0.986747     
  0.999991       0.999995       0.956265       0.847023       0.743401       0.968244       0.966503       0.952416       0.974342       0.997788     
  0.999456       0.999992       0.991910       0.984478       0.999988       0.999994       0.969927       0.876982       0.822840       0.977690     
  0.975889       0.965113       0.982031       0.998732       0.999748       0.999998       0.994361       0.989293       0.999994       0.999996     
  0.955237       0.838137       0.740154       0.967090       0.964960       0.950183       0.973150       0.997410       0.999384       0.999993     
  0.988502       0.984209       0.999987       0.999993     
 
  0.950462       0.813053       0.697360       0.961907       0.958792       0.939898       0.966858       0.996977       0.999284       0.999991     
  0.985963       0.983215       0.999984       0.999991       0.946550       0.805891       0.676626       0.959273       0.956042       0.936034     
  0.964530       0.996654       0.999173       0.999988       0.985121       0.981928       0.999982       0.999990       0.952380       0.811459     
  0.709623       0.962964       0.959701       0.941210       0.967838       0.996932       0.999318       0.999992       0.985250       0.983901     
  0.999985       0.999991       0.942420       0.796721       0.655680       0.956468       0.953065       0.931816       0.961987       0.996352     
  0.999073       0.999986       0.984793       0.980596       0.999980       0.999989       0.962091       0.836606       0.763350       0.970172     
  0.967301       0.951995       0.974148       0.997978       0.999597       0.999996       0.990269       0.987006       0.999990       0.999994     
  0.941778       0.783323       0.654529       0.955077       0.950995       0.928905       0.960522       0.995693       0.998966       0.999987     
  0.979899       0.980549       0.999978       0.999987     
 
  0.935838       0.751186       0.607008       0.948285       0.942622       0.915935       0.952861       0.995110       0.998844       0.999982     
  0.976720       0.979381       0.999974       0.999984       0.930834       0.741548       0.582648       0.944798       0.938785       0.910545     
  0.949609       0.994654       0.998678       0.999978       0.975290       0.977769       0.999971       0.999983       0.939087       0.748123     
  0.625600       0.950077       0.944435       0.918795       0.954782       0.995252       0.998965       0.999985       0.977435       0.980539     
  0.999976       0.999985       0.925247       0.729408       0.556421       0.940862       0.934436       0.904413       0.945899       0.994222     
  0.998521       0.999974       0.974569       0.975965       0.999967       0.999982       0.951738       0.782405       0.691102       0.959845     
  0.955375       0.934270       0.963707       0.996917       0.999396       0.999991       0.985144       0.984326       0.999984       0.999989     
  0.924836       0.710055       0.556681       0.938924       0.931561       0.900883       0.944183       0.993283       0.998404       0.999976     
  0.969411       0.976118       0.999964       0.999978     
 
  0.916901       0.671240       0.504069       0.929565       0.920145       0.884544       0.934703       0.992402       0.998225       0.999964     
  0.964941       0.974478       0.999959       0.999974       0.910655       0.658679       0.477256       0.924943       0.914932       0.877366     
  0.930348       0.991791       0.997996       0.999958       0.962874       0.972466       0.999954       0.999972       0.921833       0.666129     
  0.529161       0.932364       0.923376       0.889989       0.938161       0.993084       0.998533       0.999968       0.968709       0.976275     
  0.999963       0.999975       0.903595       0.642970       0.448230       0.919633       0.908982       0.869202       0.925363       0.991264     
  0.997788       0.999951       0.961863       0.970170       0.999948       0.999970       0.937946       0.711504       0.605112       0.945637     
  0.938715       0.910954       0.950242       0.995521       0.999145       0.999979       0.979241       0.980964       0.999976       0.999983     
  0.902886       0.617281       0.448009       0.916543       0.904777       0.865025       0.923332       0.990097       0.997690       0.999952     
  0.957322       0.970426       0.999945       0.999965     
 
  0.892168       0.574222       0.392350       0.903756       0.889362       0.844711       0.911612       0.988770       0.997416       0.999928     
  0.950932       0.968055       0.999939       0.999961       0.884424       0.558806       0.364831       0.897676       0.882485       0.835614     
  0.906017       0.988101       0.997144       0.999918       0.948660       0.965560       0.999932       0.999957       0.899255       0.566983     
  0.422836       0.907748       0.894501       0.853862       0.917334       0.990381       0.998025       0.999933       0.959165       0.970735     
  0.999946       0.999963       0.875671       0.539573       0.335617       0.890621       0.874579       0.825333       0.899669       0.987561     
  0.996908       0.999905       0.947728       0.962725       0.999922       0.999954       0.919586       0.623929       0.505389       0.925843     
  0.915618       0.880993       0.933037       0.993753       0.998841       0.999955       0.972595       0.976534       0.999964       0.999974     
  0.874157       0.508710       0.333903       0.885602       0.868233       0.820402       0.897245       0.986142       0.996840       0.999902     
  0.943914       0.963031       0.999919       0.999946     
 
  0.860158       0.465263       0.280083       0.868837       0.848032       0.795801       0.883054       0.984200       0.996428       0.999859     
  0.934763       0.959717       0.999913       0.999942       0.850640       0.447739       0.254235       0.860971       0.839248       0.784819     
  0.876156       0.983723       0.996166       0.999842       0.933200       0.956654       0.999902       0.999938       0.869649       0.456749     
  0.312015       0.873823       0.855226       0.809349       0.891553       0.987127       0.997438       0.999867       0.948655       0.963452     
  0.999924       0.999946       0.839870       0.425931       0.227615       0.851663       0.828874       0.772320       0.868342       0.983248     
  0.995927       0.999821       0.932706       0.953224       0.999889       0.999932       0.895310       0.523291       0.395453       0.898414     
  0.883983       0.843356       0.911357       0.991595       0.998478       0.999908       0.965128       0.970610       0.999948       0.999963     
  0.836859       0.392368       0.223931       0.843604       0.819169       0.766218       0.865262       0.981438       0.995865       0.999807     
  0.929099       0.953469       0.999884       0.999922     
 
  0.819483       0.352494       0.178526       0.822750       0.793970       0.737678       0.848624       0.978750       0.995283       0.999747     
  0.916589       0.949102       0.999879       0.999919       0.807807       0.334253       0.156818       0.812659       0.782985       0.724778     
  0.840321       0.978747       0.995092       0.999718       0.916727       0.945362       0.999865       0.999912       0.831176       0.344402     
  0.206153       0.828085       0.802822       0.755382       0.859898       0.983264       0.996757       0.999758       0.936800       0.953873     
  0.999894       0.999924       0.794454       0.311831       0.135155       0.800415       0.769508       0.709813       0.830794       0.978419     
  0.994870       0.999682       0.917058       0.941204       0.999847       0.999904       0.863747       0.415814       0.283861       0.861239     
  0.841496       0.797255       0.884581       0.989012       0.998051       0.999830       0.956623       0.962793       0.999928       0.999947     
  0.788953       0.279212       0.130023       0.787935       0.754995       0.701790       0.826546       0.975944       0.994753       0.999651     
  0.912581       0.941170       0.999839       0.999890     
 
  0.768746       0.246403       0.987523E-001  0.763551       0.725789       0.671046       0.808339       0.972607       0.994036       0.999576     
  0.897146       0.935945       0.999836       0.999888       0.754347       0.229383       0.830174E-001  0.750673       0.712174       0.656002     
  0.798392       0.973164       0.993935       0.999530       0.899201       0.931385       0.999816       0.999879       0.782094       0.240398     
  0.118110       0.768350       0.735423       0.691823       0.821917       0.978694       0.995965       0.999590       0.923175       0.941596     
  0.999855       0.999894       0.737534       0.209089       0.677922E-001  0.734743       0.694957       0.638093       0.786677       0.972930     
  0.993715       0.999472       0.900140       0.926249       0.999792       0.999868       0.823559       0.309537       0.182581       0.812245     
  0.786098       0.742485       0.852366       0.985929       0.997554       0.999712       0.946815       0.952768       0.999901       0.999926     
  0.728424       0.181552       0.629088E-001  0.716587       0.674678       0.627618       0.780812       0.969602       0.993495       0.999414     
  0.894133       0.925682       0.999781       0.999849     
 
  0.706534       0.158333       0.461697E-001  0.689923       0.643721       0.597571       0.762526       0.966140       0.992775       0.999336     
  0.877822       0.919999       0.999781       0.999850       0.688639       0.144417       0.366331E-001  0.673782       0.627027       0.579870     
  0.750377       0.966938       0.992696       0.999265       0.880582       0.914356       0.999754       0.999837       0.720566       0.155131     
  0.566851E-001  0.693359       0.652883       0.619407       0.777366       0.973317       0.995047       0.999353       0.907497       0.926204     
  0.999805       0.999856       0.667530       0.128358       0.279088E-001  0.653724       0.605828       0.558726       0.735943       0.966527     
  0.992415       0.999174       0.881112       0.907941       0.999721       0.999821       0.773246       0.214447       0.102409       0.749695     
  0.716572       0.679427       0.814546       0.982244       0.996973       0.999545       0.935390       0.940254       0.999866       0.999899     
  0.653880       0.108241       0.246768E-001  0.629165       0.579886       0.545833       0.728261       0.962310       0.992082       0.999077     
  0.873482       0.906621       0.999705       0.999795     
 
  0.632147       0.942265E-001  0.181063E-001  0.602093       0.550426       0.519982       0.711818       0.959770       0.991595       0.999014     
  0.860159       0.901129       0.999713       0.999802       0.610003       0.841623E-001  0.134257E-001  0.582781       0.530668       0.498996     
  0.696618       0.960138       0.991395       0.998909       0.861336       0.893966       0.999677       0.999784       0.645539       0.931714E-001
  0.222956E-001  0.603790       0.557889       0.540224       0.726399       0.967139       0.994003       0.999034       0.889954       0.907392     
  0.999740       0.999807       0.584253       0.728374E-001  0.954822E-002  0.558852       0.506161       0.474995       0.679155       0.959224     
  0.990983       0.998775       0.860434       0.885996       0.999633       0.999761       0.711120       0.138784       0.484770E-001  0.672967     
  0.633412       0.608703       0.770777       0.977829       0.996287       0.999319       0.922014       0.924875       0.999822       0.999864     
  0.565544       0.597515E-001  0.801498E-002  0.528031       0.475858       0.460096       0.669619       0.954060       0.990522       0.998625     
  0.850976       0.883738       0.999610       0.999728     
 
  0.545081       0.520411E-001  0.617832E-002  0.501411       0.449912       0.440433       0.656183       0.953709       0.990548       0.998613     
  0.845029       0.878894       0.999631       0.999745       0.518402       0.454585E-001  0.438391E-002  0.479962       0.428133       0.415955     
  0.637070       0.953016       0.990094       0.998466       0.842666       0.869633       0.999582       0.999720       0.556545       0.519760E-001
  0.733833E-002  0.501619       0.455000       0.456697       0.668977       0.960254       0.992863       0.998636       0.871211       0.884662     
  0.999660       0.999748       0.488431       0.382220E-001  0.307062E-002  0.453182       0.401874       0.390043       0.616565       0.951127     
  0.989459       0.998277       0.838886       0.859892       0.999524       0.999688       0.635377       0.839589E-001  0.187265E-001  0.582300     
  0.538647       0.530996       0.720329       0.972626       0.995487       0.999038       0.906801       0.905997       0.999766       0.999822     
  0.464756       0.304376E-001  0.251050E-002  0.417437       0.369617       0.373789       0.605221       0.945017       0.988873       0.998062     
  0.827692       0.856468       0.999492       0.999645     
 
  0.447913       0.266793E-001  0.218160E-002  0.393203       0.349528       0.362505       0.596646       0.948081       0.989670       0.998166     
  0.833008       0.853250       0.999534       0.999675       0.417213       0.227674E-001  0.160218E-002  0.371676       0.327616       0.334550     
  0.572688       0.945665       0.988835       0.997968       0.825320       0.841097       0.999467       0.999642       0.456243       0.268682E-001
  0.240654E-002  0.392917       0.352250       0.372739       0.605940       0.952692       0.991652       0.998187       0.851790       0.857729     
  0.999560       0.999675       0.384227       0.185941E-001  0.122591E-002  0.344027       0.301796       0.307523       0.549028       0.942312     
  0.987883       0.997719       0.817336       0.829184       0.999392       0.999599       0.546738       0.474942E-001  0.619059E-002  0.481293     
  0.438141       0.449569       0.663773       0.966671       0.994589       0.998721       0.890124       0.883376       0.999696       0.999769     
  0.357017       0.143226E-001  0.104429E-002  0.306118       0.270432       0.291073       0.536368       0.935431       0.987213       0.997429     
  0.805036       0.824553       0.999349       0.999544     
 
  0.347197       0.128320E-001  0.101495E-002  0.286588       0.257524       0.289867       0.535381       0.942776       0.988950       0.997712     
  0.823613       0.824700       0.999421       0.999593       0.314043       0.107545E-001  0.806810E-003  0.267847       0.237635       0.258564     
  0.505498       0.937997       0.987623       0.997462       0.809190       0.808541       0.999331       0.999550       0.351574       0.130147E-001
  0.102564E-002  0.287535       0.258790       0.292846       0.539283       0.944682       0.990430       0.997730       0.832880       0.826685     
  0.999441       0.999588       0.280216       0.860777E-002  0.678822E-003  0.242144       0.214433       0.231090       0.478377       0.933070     
  0.986327       0.997149       0.797298       0.793758       0.999233       0.999493       0.449332       0.252310E-001  0.219973E-002  0.377361     
  0.340513       0.368988       0.602755       0.960072       0.993624       0.998396       0.872760       0.857048       0.999612       0.999707     
  0.252318       0.647117E-002  0.587884E-003  0.205631       0.185978       0.215706       0.465386       0.925473       0.985600       0.996785     
  0.783891       0.788200       0.999180       0.999424     
 
  0.248770       0.593523E-002  0.567940E-003  0.189080       0.177074       0.222706       0.472759       0.937579       0.988359       0.997307     
  0.816266       0.792932       0.999293       0.999495       0.215935       0.495282E-002  0.482631E-003  0.175728       0.161098       0.188966     
  0.435918       0.929946       0.986480       0.997006       0.794754       0.771391       0.999170       0.999441       0.249146       0.605482E-002
  0.548217E-003  0.192806       0.178405       0.218321       0.469177       0.936405       0.989263       0.997318       0.815863       0.790827     
  0.999298       0.999486       0.184458       0.395752E-002  0.423968E-003  0.154589       0.141931       0.162235       0.405255       0.923353     
  0.984832       0.996634       0.779673       0.752983       0.999043       0.999369       0.347125       0.125058E-001  0.102800E-002  0.276586     
  0.251095       0.291086       0.537305       0.953122       0.992666       0.998104       0.856369       0.826386       0.999511       0.999633     
  0.159147       0.295760E-002  0.339693E-003  0.123235       0.117615       0.148681       0.392430       0.915027       0.984053       0.996205     
  0.764726       0.746570       0.998977       0.999282     
 
  0.161930       0.281026E-002  0.311066E-003  0.110383       0.111515       0.162901       0.410488       0.932598       0.987913       0.996993     
  0.811411       0.758177       0.999149       0.999380       0.132978       0.236694E-002  0.270325E-003  0.103153       0.100283       0.129032     
  0.366493       0.921682       0.985463       0.996649       0.783174       0.730086       0.998984       0.999314       0.159343       0.288764E-002
  0.302417E-003  0.116857       0.113921       0.152413       0.397865       0.927729       0.988157       0.996995       0.800917       0.750324     
  0.999130       0.999367       0.107167       0.190722E-002  0.236203E-003  0.879624E-001  0.856778E-001  0.104789       0.332652       0.912934     
  0.983398       0.996229       0.764405       0.707424       0.998820       0.999225       0.248711       0.601312E-002  0.585929E-003  0.187694     
  0.175107       0.219032       0.469311       0.945952       0.991762       0.997875       0.841989       0.791487       0.999391       0.999548     
  0.872965E-001  0.140613E-002  0.171619E-003  0.645075E-001  0.664916E-001  0.937509E-001  0.320209       0.904026       0.982594       0.995749     
  0.748063       0.700061       0.998741       0.999118     
 
  0.936777E-001  0.135938E-002  0.150667E-003  0.552565E-001  0.622672E-001  0.112100       0.349632       0.927698       0.987590       0.996764     
  0.808785       0.720502       0.998987       0.999246       0.714788E-001  0.115662E-002  0.130687E-003  0.528627E-001  0.555404E-001  0.811142E-001
  0.299062       0.913000       0.984566       0.996387       0.774554       0.684854       0.998770       0.999169       0.898024E-001  0.141917E-002
  0.152085E-003  0.627538E-001  0.656494E-001  0.980604E-001  0.327395       0.918384       0.987101       0.996756       0.787991       0.705368     
  0.998934       0.999230       0.534180E-001  0.930855E-003  0.109845E-003  0.434680E-001  0.455487E-001  0.614323E-001  0.263242       0.901473     
  0.982005       0.995929       0.751364       0.657699       0.998561       0.999060       0.162446       0.296373E-002  0.335678E-003  0.116404     
  0.113947       0.155173       0.400391       0.938358       0.990905       0.997705       0.829535       0.752386       0.999251       0.999450     
  0.403310E-001  0.647451E-003  0.711291E-004  0.285679E-001  0.322380E-001  0.533236E-001  0.251415       0.892250       0.981230       0.995413     
  0.734170       0.649278       0.998465       0.998929     
 
  0.464494E-001  0.623857E-003  0.610678E-004  0.231893E-001  0.297164E-001  0.706000E-001  0.288398       0.921947       0.987285       0.996596     
  0.807075       0.678067       0.998798       0.999091       0.324253E-001  0.530144E-003  0.523131E-004  0.227613E-001  0.261870E-001  0.463244E-001
  0.235279       0.903103       0.983682       0.996193       0.766968       0.635967       0.998522       0.998999       0.432414E-001  0.669743E-003
  0.654628E-004  0.288623E-001  0.328160E-001  0.573596E-001  0.259918       0.907879       0.986049       0.996579       0.776243       0.656429     
  0.998704       0.999071       0.220137E-001  0.416063E-003  0.415600E-004  0.179117E-001  0.203469E-001  0.324048E-001  0.199362       0.888374     
  0.980591       0.995705       0.739377       0.604605       0.998259       0.998868       0.945553E-001  0.150209E-002  0.174908E-003  0.645135E-001
  0.673817E-001  0.102010       0.332287       0.929960       0.990062       0.997580       0.818271       0.709317       0.999088       0.999337     
  0.150656E-001  0.260279E-003  0.231607E-004  0.101816E-001  0.127039E-001  0.271714E-001  0.188589       0.879227       0.979926       0.995165     
  0.722595       0.595100       0.998144       0.998708     
 
  0.191850E-001  0.254719E-003  0.203084E-004  0.816731E-002  0.118979E-001  0.399032E-001  0.227538       0.914372       0.986907       0.996451     
  0.805513       0.630041       0.998571       0.998913       0.121225E-001  0.212483E-003  0.167873E-004  0.802422E-002  0.101803E-001  0.241358E-001
  0.177682       0.891513       0.982752       0.996028       0.759489       0.584666       0.998238       0.998806       0.174108E-001  0.284102E-003
  0.233082E-004  0.111002E-001  0.138065E-001  0.305830E-001  0.198457       0.895769       0.984947       0.996427       0.764748       0.604950     
  0.998441       0.998891       0.731557E-002  0.159004E-003  0.125613E-004  0.598064E-002  0.738279E-002  0.155902E-001  0.143878       0.873221     
  0.979106       0.995512       0.727748       0.549802       0.997915       0.998650       0.482899E-001  0.745453E-003  0.800422E-004  0.314208E-001
  0.353901E-001  0.620278E-001  0.267894       0.920616       0.989232       0.997473       0.808250       0.663478       0.998902       0.999209     
  0.442828E-002  0.861316E-004  0.577566E-005  0.281540E-002  0.391435E-002  0.126261E-001  0.134555       0.864520       0.978630       0.994952     
  0.712572       0.539326       0.997776       0.998454     
 
  0.629965E-002  0.882083E-004  0.541040E-005  0.234516E-002  0.384577E-002  0.199734E-001  0.169145       0.904006       0.986383       0.996310     
  0.803842       0.576362       0.998297       0.998709       0.357592E-002  0.697112E-004  0.403892E-005  0.218746E-002  0.308947E-002  0.115567E-001
  0.127661       0.877899       0.981768       0.995868       0.752269       0.531584       0.997915       0.998584       0.562744E-002  0.101746E-003
  0.645120E-005  0.339421E-002  0.464767E-002  0.149103E-001  0.144412       0.881691       0.983787       0.996281       0.753588       0.551490     
  0.998141       0.998686       0.187097E-002  0.489388E-004  0.281766E-005  0.152462E-002  0.205338E-002  0.696424E-002  0.978843E-001  0.855750     
  0.977568       0.995324       0.717066       0.494004       0.997524       0.998404       0.209899E-001  0.335061E-003  0.306190E-004  0.129494E-001
  0.158542E-001  0.346586E-001  0.208541       0.910221       0.988439       0.997369       0.800243       0.615297       0.998690       0.999065     
  0.973792E-003  0.218418E-004  0.100103E-005  0.561036E-003  0.881693E-003  0.546240E-002  0.902486E-001  0.847625       0.977312       0.994747     
  0.703834       0.482608       0.997357       0.998160     
 
  0.161828E-002  0.258699E-004  0.113514E-005  0.537566E-003  0.985160E-003  0.911327E-002  0.117799       0.890315       0.985662       0.996163     
  0.802039       0.519454       0.997970       0.998471       0.820815E-003  0.182873E-004  0.685054E-006  0.445270E-003  0.711301E-003  0.525083E-002
  0.869359E-001  0.862155       0.980730       0.995704       0.745750       0.478266       0.997550       0.998325       0.143929E-002  0.299227E-004
  0.131357E-005  0.801708E-003  0.122013E-002  0.686556E-002  0.999290E-001  0.865567       0.982576       0.996130       0.742927       0.497789     
  0.997803       0.998460       0.363099E-003  0.118566E-004  0.424420E-006  0.286929E-003  0.424886E-003  0.299974E-002  0.625436E-001  0.835707     
  0.975945       0.995131       0.706729       0.438895       0.997087       0.998132       0.766867E-002  0.130766E-003  0.956614E-005  0.442866E-002
  0.592893E-002  0.180708E-001  0.156593       0.898606       0.987671       0.997262       0.793994       0.566223       0.998452       0.998902     
  0.158925E-003  0.416658E-005  0.107857E-006  0.767777E-004  0.139778E-003  0.229273E-002  0.566859E-001  0.828310       0.975923       0.994536     
  0.695940       0.426712       0.996880       0.997802     
 
  0.312969E-003  0.631039E-005  0.178086E-006  0.929828E-004  0.190227E-003  0.387031E-002  0.756048E-001  0.872435       0.984652       0.996004     
  0.800175       0.460445       0.997577       0.998172       0.140015E-003  0.378643E-005  0.802144E-007  0.641795E-004  0.117556E-003  0.225941E-002
  0.547374E-001  0.843153       0.979516       0.995530       0.740374       0.423783       0.997119       0.997990       0.281400E-003  0.690547E-005
  0.184672E-006  0.136145E-003  0.235142E-003  0.303946E-002  0.650604E-001  0.847282       0.981352       0.995972       0.733910       0.444245     
  0.997425       0.998203       0.511115E-004  0.216063E-005  0.389200E-007  0.352032E-004  0.595102E-004  0.125173E-002  0.370518E-001  0.812873     
  0.974254       0.994930       0.697344       0.384803       0.996597       0.997820       0.227743E-002  0.423568E-004  0.233984E-005  0.119700E-002
  0.176990E-002  0.891707E-002  0.112582       0.885358       0.986895       0.997152       0.788784       0.516587       0.998186       0.998715     
  0.182845E-004  0.584119E-006  0.662948E-008  0.609902E-005  0.136618E-004  0.928895E-003  0.328866E-001  0.806257       0.974456       0.994316     
  0.689023       0.371965       0.996338       0.997364     
 
  0.470745E-004  0.120827E-005  0.177955E-006  0.121497E-004  0.274349E-004  0.157123E-002  0.444151E-001  0.850041       0.983241       0.995835     
  0.798294       0.401872       0.997102       0.997769       0.181453E-004  0.588030E-006  0.801154E-007  0.676877E-005  0.139323E-004  0.919109E-003
  0.311924E-001  0.819564       0.977847       0.995343       0.735420       0.368886       0.996587       0.997498       0.434675E-004  0.116892E-005
  0.184440E-006  0.164249E-004  0.325322E-004  0.131733E-002  0.397627E-001  0.826809       0.980093       0.995810       0.726595       0.392191     
  0.997000       0.997892       0.538927E-005  0.259779E-006  0.388639E-007  0.281058E-005  0.542430E-005  0.505929E-003  0.203120E-001  0.787410     
  0.972489       0.994722       0.689251       0.333026       0.996050       0.997444       0.547425E-003  0.112826E-004  0.233772E-005  0.250372E-003
  0.414284E-003  0.428564E-002  0.773990E-001  0.870265       0.986065       0.997037       0.783633       0.467561       0.997889       0.998493     
  0.144921E-005  0.512002E-007  0.662106E-008  0.294580E-006  0.784300E-006  0.354951E-003  0.174609E-001  0.781144       0.972819       0.994087     
  0.683156       0.319303       0.995715       0.996799     
 
  0.630842E-005  0.169304E-006  0.177908E-006  0.130967E-005  0.321051E-005  0.590759E-003  0.231957E-001  0.822218       0.980939       0.995631     
  0.796381       0.344343       0.996471       0.997040       0.218754E-005  0.632787E-007  0.800207E-007  0.593798E-006  0.133986E-005  0.339980E-003
  0.155109E-001  0.790467       0.974999       0.995113       0.730779       0.314527       0.995837       0.996495       0.595709E-005  0.134776E-006
  0.184301E-006  0.149799E-005  0.339779E-005  0.539869E-003  0.224321E-001  0.803444       0.978698       0.995629       0.720801       0.341386     
  0.996509       0.997484       0.573485E-006  0.183653E-007  0.388342E-007  0.175278E-006  0.382895E-006  0.188862E-003  0.101397E-001  0.758971     
  0.970532       0.994491       0.682879       0.283569       0.995418       0.996926       0.104344E-003  0.235969E-005  0.233595E-005  0.381181E-004
  0.716334E-004  0.200269E-002  0.504363E-001  0.853087       0.985165       0.996911       0.778877       0.419169       0.997554       0.998219     
  0.128446E-006  0.254380E-008  0.661158E-008  0.131125E-007  0.393245E-007  0.118560E-003  0.815604E-002  0.751335       0.970775       0.993827     
  0.678504       0.267984       0.994969       0.996039     
 
  0.735574E-006  0.187060E-007  0.177636E-006  0.851652E-007  0.254053E-006  0.202270E-003  0.105685E-001  0.789086       0.977309       0.995388     
  0.794465       0.289944       0.995646       0.995885       0.226095E-006  0.524530E-008  0.797038E-007  0.276578E-007  0.803951E-007  0.111819E-003
  0.663831E-002  0.756092       0.970507       0.994830       0.726557       0.262985       0.994842       0.994921       0.686486E-006  0.121059E-007
  0.184182E-006  0.767390E-007  0.225368E-006  0.202344E-003  0.115175E-001  0.776540       0.977089       0.995426       0.716208       0.292526     
  0.995946       0.996981       0.509270E-007  0.936425E-009  0.388271E-007  0.463613E-008  0.145805E-007  0.617563E-004  0.449780E-002  0.726723     
  0.968135       0.994232       0.677792       0.236921       0.994664       0.996176       0.170822E-004  0.406819E-006  0.233352E-005  0.421554E-005
  0.915871E-005  0.905042E-003  0.311184E-001  0.833908       0.984227       0.996774       0.774994       0.372361       0.997186       0.997911     
  0.979877E-008  0.906690E-010  0.659819E-008  0.227950E-009  0.105458E-008  0.332202E-004  0.327507E-002  0.716182       0.967841       0.993521     
  0.674760       0.219525       0.994036       0.994896     
 
  0.619789E-007  0.186453E-007  0.177153E-006  0.336286E-008  0.116585E-007  0.605443E-004  0.399998E-002  0.749759       0.971013       0.995063     
  0.792474       0.238732       0.994460       0.993867       0.143205E-007  0.521727E-008  0.792213E-007  0.729189E-009  0.252150E-008  0.313113E-004
  0.235720E-002  0.715594       0.963445       0.994457       0.722404       0.214534       0.993484       0.992510       0.540323E-007  0.120754E-007
  0.184024E-006  0.234451E-008  0.841985E-008  0.659891E-004  0.518572E-002  0.744681       0.974883       0.995192       0.712386       0.245279     
  0.995268       0.996292       0.217920E-008  0.932636E-009  0.388271E-007  0.638688E-010  0.253428E-009  0.164306E-004  0.163824E-002  0.688382     
  0.963731       0.993904       0.673205       0.192463       0.993593       0.994661       0.270001E-005  0.406168E-006  0.233013E-005  0.323110E-006
  0.825072E-006  0.378084E-003  0.178191E-001  0.811846       0.983153       0.996621       0.772200       0.326384       0.996770       0.997541     
  0.290896E-009  0.901830E-010  0.657364E-008  0.181477E-011  0.110126E-010  0.735763E-005  0.107595E-002  0.674821       0.963029       0.993143     
  0.671492       0.174497       0.992778       0.992999     
 
  0.690010E-008  0.185030E-007  0.175276E-006  0.336188E-008  0.116364E-007  0.161582E-004  0.126877E-002  0.705138       0.960742       0.994566     
  0.790394       0.192528       0.992738       0.990548       0.122880E-008  0.516403E-008  0.782231E-007  0.728688E-009  0.251465E-008  0.767911E-005
  0.710590E-003  0.670009       0.953233       0.993934       0.718424       0.171015       0.991672       0.989083       0.547333E-008  0.120362E-007
  0.183654E-006  0.234288E-008  0.841065E-008  0.189559E-004  0.204079E-002  0.708436       0.971642       0.994914       0.709137       0.201592     
  0.994434       0.995284       0.128730E-009  0.924334E-009  0.385157E-007  0.638175E-010  0.252775E-009  0.372288E-005  0.485055E-003  0.644773     
  0.955564       0.993426       0.669335       0.152258       0.991992       0.991772       0.515022E-006  0.405542E-006  0.232907E-005  0.322969E-006
  0.824501E-006  0.143410E-003  0.932877E-002  0.786466       0.981744       0.996438       0.770126       0.282127       0.996265       0.996998     
  0.119114E-010  0.892835E-010  0.651198E-008  0.181376E-011  0.109821E-010  0.142006E-005  0.291589E-003  0.628351       0.955331       0.992643     
  0.668714       0.134817       0.991069       0.989995     
 
  0.688031E-008  0.182725E-007  0.172514E-006  0.336095E-008  0.116065E-007  0.383807E-005  0.348888E-003  0.655416       0.945927       0.993847     
  0.788171       0.151599       0.990387       0.985807       0.122492E-008  0.508666E-008  0.768972E-007  0.728238E-009  0.250482E-008  0.166817E-005
  0.189551E-003  0.619688       0.939599       0.993248       0.714520       0.132775       0.989368       0.984637       0.546543E-008  0.119748E-007
  0.182683E-006  0.234152E-008  0.839726E-008  0.481991E-005  0.693015E-003  0.667811       0.966698       0.994573       0.706224       0.162026     
  0.993369       0.993742       0.128192E-009  0.909969E-009  0.379118E-007  0.637748E-010  0.251833E-009  0.743033E-006  0.120519E-003  0.596167     
  0.942805       0.992729       0.665749       0.116936       0.989721       0.987234       0.514736E-006  0.404466E-006  0.232494E-005  0.322856E-006
  0.823767E-006  0.487194E-004  0.435975E-002  0.757096       0.979475       0.996223       0.768334       0.239866       0.995618       0.996135     
  0.118618E-010  0.879379E-010  0.640478E-008  0.181290E-011  0.109328E-010  0.249533E-006  0.675388E-004  0.577179       0.944594       0.991981     
  0.666127       0.100856       0.988885       0.985946     
 
  0.685375E-008  0.179322E-007  0.168951E-006  0.336000E-008  0.116036E-007  0.765135E-006  0.872775E-004  0.601118       0.925213       0.992636     
  0.785672       0.116309       0.987148       0.979259       0.121973E-008  0.497996E-008  0.753591E-007  0.727813E-009  0.250370E-008  0.295899E-006
  0.444429E-004  0.565318       0.920895       0.992165       0.710630       0.100190       0.986286       0.978626       0.545154E-008  0.118925E-007
  0.181261E-006  0.234036E-008  0.839437E-008  0.103132E-005  0.204241E-003  0.623258       0.959503       0.994144       0.703602       0.127157     
  0.992000       0.991450       0.127415E-009  0.888038E-009  0.369213E-007  0.637340E-010  0.251720E-009  0.116994E-006  0.268412E-004  0.543289     
  0.924901       0.991623       0.662134       0.869939E-001  0.986621       0.980883       0.514177E-006  0.403215E-006  0.231657E-005  0.322771E-006
  0.823613E-006  0.149587E-004  0.183246E-002  0.723801       0.976442       0.995967       0.766866       0.200441       0.994853       0.995013     
  0.117927E-010  0.860996E-010  0.625073E-008  0.181210E-011  0.109295E-010  0.335167E-007  0.133515E-004  0.522242       0.929812       0.991031     
  0.663547       0.728592E-001  0.986033       0.980462     
 
  0.681883E-008  0.174819E-007  0.162759E-006  0.335906E-008  0.116007E-007  0.118473E-006  0.218853E-004  0.543748       0.897856       0.990681     
  0.782810       0.870005E-001  0.982762       0.970506       0.121337E-008  0.484773E-008  0.728350E-007  0.727433E-009  0.250270E-008  0.383585E-007
  0.101469E-004  0.508673       0.897583       0.990641       0.706778       0.735273E-001  0.982394       0.971095       0.542699E-008  0.117462E-007
  0.178706E-006  0.233939E-008  0.839194E-008  0.172837E-006  0.595918E-004  0.575764       0.948953       0.993515       0.701164       0.975161E-001
  0.990154       0.988004       0.126320E-009  0.857437E-009  0.354268E-007  0.636975E-010  0.251619E-009  0.124241E-007  0.567430E-005  0.487621     
  0.900973       0.989849       0.658404       0.627223E-001  0.982419       0.972307       0.513328E-006  0.401185E-006  0.230360E-005  0.322702E-006
  0.823489E-006  0.422659E-005  0.741701E-003  0.687108       0.972122       0.995638       0.765563       0.164777       0.993911       0.993483     
  0.116932E-010  0.834411E-010  0.602989E-008  0.181138E-011  0.109265E-010  0.275550E-008  0.239412E-005  0.465340       0.910711       0.989674     
  0.660927       0.508511E-001  0.982398       0.973398     
 
  0.678631E-008  0.169065E-007  0.154098E-006  0.335811E-008  0.115978E-007  0.154283E-007  0.438973E-005  0.484364       0.862876       0.987486     
  0.779386       0.633801E-001  0.976980       0.959370       0.120774E-008  0.468745E-008  0.695194E-007  0.727083E-009  0.250178E-008  0.408915E-008
  0.184957E-005  0.451095       0.868990       0.988400       0.702853       0.524399E-001  0.977539       0.961966       0.538957E-008  0.115317E-007
  0.175390E-006  0.233853E-008  0.838982E-008  0.249275E-007  0.146833E-004  0.526328       0.935564       0.992662       0.698837       0.730396E-001
  0.987859       0.983558       0.124977E-009  0.815816E-009  0.332834E-007  0.636644E-010  0.251528E-009  0.105109E-008  0.897476E-006  0.430405     
  0.870058       0.986967       0.654472       0.437809E-001  0.976864       0.961319       0.511910E-006  0.398108E-006  0.228518E-005  0.322639E-006
  0.823375E-006  0.111188E-005  0.263706E-003  0.647492       0.965898       0.995218       0.764268       0.133243       0.992738       0.991386     
  0.115616E-010  0.798958E-010  0.573656E-008  0.181069E-011  0.109237E-010  0.173212E-009  0.334770E-006  0.407949       0.886678       0.987691     
  0.658133       0.342476E-001  0.977849       0.964706     
 
  0.678589E-008  0.161266E-007  0.143629E-006  0.335719E-008  0.115949E-007  0.147652E-007  0.763796E-006  0.424298       0.819557       0.982433     
  0.775128       0.449560E-001  0.969603       0.945824       0.120762E-008  0.446452E-008  0.654295E-007  0.726762E-009  0.250094E-008  0.394385E-008
  0.292576E-006  0.393854       0.833248       0.984942       0.698619       0.363449E-001  0.971353       0.950612       0.538919E-008  0.112485E-007
  0.170797E-006  0.233779E-008  0.838800E-008  0.246152E-007  0.334187E-005  0.475938       0.918629       0.991473       0.696582       0.534237E-001
  0.985027       0.977994       0.124964E-009  0.758927E-009  0.305843E-007  0.636350E-010  0.251447E-009  0.100987E-008  0.120229E-006  0.373319     
  0.831526       0.982463       0.650169       0.295994E-001  0.969758       0.947831       0.511889E-006  0.393904E-006  0.225751E-005  0.322582E-006
  0.823272E-006  0.110602E-005  0.862768E-004  0.605546       0.957133       0.994650       0.762959       0.106000       0.991269       0.988551     
  0.115607E-010  0.751966E-010  0.537297E-008  0.181004E-011  0.109210E-010  0.168179E-009  0.429683E-007  0.351644       0.856972       0.984901     
  0.655084       0.222487E-001  0.972242       0.954213     
 
  0.678547E-008  0.152549E-007  0.132300E-006  0.335627E-008  0.115921E-007  0.139921E-007  0.109058E-006  0.365393       0.769679       0.975370     
  0.769980       0.310514E-001  0.960956       0.930886       0.120751E-008  0.418540E-008  0.605238E-007  0.726464E-009  0.250016E-008  0.376628E-008
  0.371089E-007  0.337752       0.787765       0.979212       0.693630       0.244757E-001  0.963395       0.936562       0.538886E-008  0.109034E-007
  0.164507E-006  0.233714E-008  0.838642E-008  0.242254E-007  0.684909E-006  0.425543       0.897809       0.989810       0.694349       0.381462E-001
  0.981570       0.971240       0.124953E-009  0.690248E-009  0.276066E-007  0.636084E-010  0.251375E-009  0.960632E-009  0.131519E-007  0.317857     
  0.785118       0.975582       0.645163       0.193951E-001  0.961060       0.932201       0.511869E-006  0.388828E-006  0.221691E-005  0.322528E-006
  0.823175E-006  0.109836E-005  0.262721E-004  0.562105       0.945803       0.993884       0.761627       0.830046E-001  0.989479       0.984961     
  0.115598E-010  0.694836E-010  0.495056E-008  0.180942E-011  0.109184E-010  0.162123E-009  0.468796E-008  0.297598       0.820704       0.980750     
  0.651578       0.139342E-001  0.965389       0.941834     
 
  0.678506E-008  0.141482E-007  0.116759E-006  0.335536E-008  0.115893E-007  0.130677E-007  0.116236E-007  0.308540       0.709613       0.964677     
  0.763184       0.209332E-001  0.950267       0.913445       0.120741E-008  0.382046E-008  0.536871E-007  0.726179E-009  0.249942E-008  0.355183E-008
  0.352020E-008  0.284341       0.732379       0.970345       0.687510       0.160703E-001  0.953417       0.919850       0.538854E-008  0.104930E-007
  0.157438E-006  0.233653E-008  0.838491E-008  0.237310E-007  0.119365E-006  0.376580       0.872548       0.987461       0.691982       0.266919E-001
  0.977372       0.963130       0.124942E-009  0.610046E-009  0.241879E-007  0.635832E-010  0.251305E-009  0.904528E-009  0.109187E-008  0.265996     
  0.732184       0.965990       0.639281       0.123771E-001  0.950841       0.914875       0.511850E-006  0.383311E-006  0.217269E-005  0.322476E-006
  0.823079E-006  0.108817E-005  0.760475E-005  0.518507       0.932309       0.992866       0.760263       0.641814E-001  0.987385       0.980702     
  0.115589E-010  0.626486E-010  0.446218E-008  0.180878E-011  0.109156E-010  0.155293E-009  0.366083E-009  0.247706       0.778680       0.975153     
  0.647571       0.845522E-002  0.957269       0.927781     
 
  0.678466E-008  0.129428E-007  0.100640E-006  0.335446E-008  0.115866E-007  0.119934E-007  0.829066E-009  0.253081       0.632332       0.946060     
  0.752662       0.137938E-001  0.936316       0.891688       0.120731E-008  0.344488E-008  0.471445E-007  0.725916E-009  0.249874E-008  0.331812E-008
  0.234499E-009  0.234394       0.666989       0.957019       0.679724       0.103022E-001  0.941429       0.900666       0.538825E-008  0.100067E-007
  0.149712E-006  0.233595E-008  0.838346E-008  0.231550E-007  0.167987E-007  0.329819       0.842454       0.984155       0.689320       0.183218E-001
  0.972335       0.953613       0.124932E-009  0.531608E-009  0.211926E-007  0.635598E-010  0.251241E-009  0.846078E-009  0.644587E-010  0.218443     
  0.672602       0.952878       0.632212       0.770199E-002  0.939196       0.896025       0.511832E-006  0.376421E-006  0.211490E-005  0.322427E-006
  0.822988E-006  0.107556E-005  0.212692E-005  0.475681       0.917109       0.991609       0.758887       0.490730E-001  0.985007       0.975898     
  0.115581E-010  0.557239E-010  0.402300E-008  0.180816E-011  0.109130E-010  0.148369E-009  0.187659E-010  0.202570       0.730066       0.967459     
  0.642781       0.497795E-002  0.947873       0.912139     
 
  0.678427E-008  0.116372E-007  0.853776E-007  0.335359E-008  0.115839E-007  0.106710E-007  0.605950E-010  0.199132       0.536199       0.913581     
  0.735444       0.892743E-002  0.918431       0.865225       0.120722E-008  0.305094E-008  0.409603E-007  0.725672E-009  0.249810E-008  0.302686E-008
  0.157034E-010  0.188369       0.590999       0.936638       0.669092       0.647929E-002  0.927120       0.878843       0.538797E-008  0.945257E-008
  0.140356E-006  0.233541E-008  0.838212E-008  0.224932E-007  0.213217E-008  0.286594       0.809412       0.979921       0.686362       0.124057E-001
  0.966700       0.943248       0.124923E-009  0.454694E-009  0.184297E-007  0.635381E-010  0.251182E-009  0.776809E-009  0.352852E-011  0.175939     
  0.607276       0.935202       0.623472       0.469849E-002  0.926103       0.875690       0.511816E-006  0.368481E-006  0.204740E-005  0.322383E-006
  0.822908E-006  0.106256E-005  0.580598E-006  0.434719       0.901157       0.990188       0.757517       0.372372E-001  0.982474       0.970836     
  0.115572E-010  0.485905E-010  0.358884E-008  0.180755E-011  0.109104E-010  0.139674E-009  0.831840E-012  0.162811       0.675191       0.956846     
  0.636866       0.286057E-002  0.937133       0.894893     
 
  0.678388E-008  0.102602E-007  0.697703E-007  0.335274E-008  0.115812E-007  0.921657E-008  0.484536E-011  0.149269       0.430566       0.864211     
  0.709697       0.571288E-002  0.897105       0.835164       0.120714E-008  0.265617E-008  0.349132E-007  0.725440E-009  0.249750E-008  0.272256E-008
  0.119647E-011  0.147659       0.509917       0.908805       0.655364       0.402245E-002  0.910960       0.855229       0.538771E-008  0.885890E-008
  0.130527E-006  0.233491E-008  0.838087E-008  0.217324E-007  0.278961E-009  0.247771       0.775052       0.974863       0.683157       0.833570E-002
  0.960650       0.932443       0.124914E-009  0.382446E-009  0.158547E-007  0.635177E-010  0.251126E-009  0.707002E-009  0.199263E-012  0.139427     
  0.540932       0.913650       0.613321       0.282841E-002  0.912146       0.854802       0.511802E-006  0.360228E-006  0.197076E-005  0.322343E-006
  0.822835E-006  0.104658E-005  0.165657E-006  0.396353       0.884731       0.988591       0.756136       0.281440E-001  0.979820       0.965667     
  0.115564E-010  0.415843E-010  0.317436E-008  0.180695E-011  0.109078E-010  0.130501E-009  0.382973E-013  0.129040       0.617833       0.943771     
  0.630035       0.161670E-002  0.925509       0.876883     
 
  0.678351E-008  0.889315E-008  0.572711E-007  0.335191E-008  0.115786E-007  0.773976E-008  0.334296E-011  0.106698       0.328734       0.800440     
  0.676151       0.363707E-002  0.873552       0.803162       0.120706E-008  0.227864E-008  0.300690E-007  0.725225E-009  0.249693E-008  0.241005E-008
  0.734392E-012  0.113056       0.428139       0.873583       0.638441       0.248337E-002  0.893299       0.830209       0.538747E-008  0.826316E-008
  0.120065E-006  0.233443E-008  0.837970E-008  0.209516E-007  0.190639E-009  0.213570       0.740547       0.969096       0.679738       0.558862E-002
  0.954408       0.921625       0.124906E-009  0.319303E-009  0.137799E-007  0.634991E-010  0.251074E-009  0.639352E-009  0.100101E-012  0.109153     
  0.476092       0.889003       0.602020       0.169280E-002  0.897670       0.833769       0.511788E-006  0.351874E-006  0.189701E-005  0.322307E-006
  0.822769E-006  0.103128E-005  0.140905E-006  0.360984       0.868410       0.986825       0.754746       0.212637E-001  0.977163       0.960627     
  0.115556E-010  0.352352E-010  0.281491E-008  0.180637E-011  0.109052E-010  0.121354E-009  0.207177E-013  0.101327       0.560443       0.928931     
  0.622588       0.906365E-003  0.913339       0.858590     
 
  0.678316E-008  0.761169E-008  0.460237E-007  0.335113E-008  0.115762E-007  0.636283E-008  0.144431E-011  0.733778E-001  0.241922       0.729062     
  0.637634       0.230475E-002  0.849315       0.771298       0.120699E-008  0.191361E-008  0.251975E-007  0.725026E-009  0.249641E-008  0.208981E-008
  0.332870E-012  0.839938E-001  0.347800       0.828822       0.617136       0.152709E-002  0.874163       0.803944       0.538723E-008  0.766842E-008
  0.109965E-006  0.233397E-008  0.837856E-008  0.201771E-007  0.124520E-009  0.183659       0.705814       0.962611       0.676058       0.374386E-002
  0.947990       0.910752       0.124899E-009  0.262588E-009  0.117356E-007  0.634819E-010  0.251027E-009  0.573763E-009  0.521383E-013  0.841296E-001
  0.412504       0.859708       0.588839       0.100875E-002  0.882591       0.812479       0.511776E-006  0.343713E-006  0.183070E-005  0.322273E-006
  0.822707E-006  0.101612E-005  0.117099E-006  0.328702       0.852453       0.985129       0.753445       0.160746E-001  0.974545       0.955690     
  0.115548E-010  0.293457E-010  0.244084E-008  0.180583E-011  0.109029E-010  0.112072E-009  0.115624E-013  0.785365E-001  0.501918       0.910429     
  0.613750       0.504778E-003  0.900504       0.839869     
 
  0.678284E-008  0.649403E-008  0.375286E-007  0.335042E-008  0.115739E-007  0.520006E-008  0.522679E-012  0.498208E-001  0.176334       0.659244     
  0.598603       0.147324E-002  0.826251       0.741699       0.120692E-008  0.159304E-008  0.212674E-007  0.724843E-009  0.249593E-008  0.179217E-008
  0.175825E-012  0.615501E-001  0.278465       0.780023       0.593694       0.948815E-003  0.855142       0.778529       0.538701E-008  0.710879E-008
  0.100847E-006  0.233353E-008  0.837746E-008  0.194244E-007  0.818903E-010  0.158301       0.672771       0.955769       0.672285       0.253341E-002
  0.941696       0.900288       0.124892E-009  0.215708E-009  0.101170E-007  0.634661E-010  0.250983E-009  0.513584E-009  0.339597E-013  0.647172E-001
  0.356375       0.829478       0.575273       0.607468E-003  0.868019       0.792430       0.511764E-006  0.335932E-006  0.176749E-005  0.322241E-006
  0.822648E-006  0.100150E-005  0.977594E-007  0.300050       0.837556       0.983379       0.752171       0.122529E-001  0.972035       0.950991     
  0.115541E-010  0.243848E-010  0.213744E-008  0.180534E-011  0.109007E-010  0.103154E-009  0.745045E-014  0.609122E-001  0.449141       0.891524     
  0.604853       0.284139E-003  0.888122       0.822290     
 
  0.678254E-008  0.564252E-008  0.314054E-007  0.334975E-008  0.115718E-007  0.424126E-008  0.364028E-013  0.334055E-001  0.127037       0.591253     
  0.559129       0.955501E-003  0.804250       0.713980       0.120686E-008  0.136539E-008  0.182339E-007  0.724676E-009  0.249549E-008  0.153869E-008
  0.886821E-013  0.446979E-001  0.220820       0.728569       0.568545       0.599294E-003  0.836560       0.754252       0.538679E-008  0.659204E-008
  0.927230E-007  0.233312E-008  0.837643E-008  0.186589E-007  0.540289E-010  0.136982       0.641058       0.948568       0.668423       0.174026E-002
  0.935530       0.890213       0.124886E-009  0.183269E-009  0.882832E-008  0.634521E-010  0.250944E-009  0.461991E-009  0.258145E-013  0.497965E-001
  0.307033       0.797993       0.561103       0.372069E-003  0.853875       0.773415       0.511754E-006  0.327154E-006  0.170460E-005  0.322212E-006
  0.822598E-006  0.986263E-006  0.821682E-007  0.275064       0.823753       0.981600       0.750954       0.945812E-002  0.969667       0.946622     
  0.115535E-010  0.210896E-010  0.190192E-008  0.180488E-011  0.108987E-010  0.954186E-010  0.584670E-014  0.475202E-001  0.402884       0.872685     
  0.596016       0.162855E-003  0.876337       0.805979     
 
  0.678226E-008  0.481548E-008  0.257520E-007  0.334912E-008  0.115698E-007  0.340639E-008  0.107527E-015  0.216168E-001  0.879544E-001  0.519943     
  0.515947       0.630254E-003  0.781877       0.686184       0.120680E-008  0.114188E-008  0.152083E-007  0.724521E-009  0.249507E-008  0.130902E-008
  0.488356E-013  0.320651E-001  0.171819       0.674565       0.541657       0.386184E-003  0.818222       0.730603       0.538660E-008  0.608380E-008
  0.851344E-007  0.233274E-008  0.837547E-008  0.179250E-007  0.333332E-010  0.119187       0.611019       0.941102       0.664511       0.121769E-002
  0.929515       0.880557       0.124880E-009  0.150774E-009  0.747854E-008  0.634395E-010  0.250909E-009  0.413339E-009  0.223043E-013  0.381384E-001
  0.260989       0.763694       0.545697       0.232708E-003  0.839685       0.754554       0.511745E-006  0.320317E-006  0.165114E-005  0.322187E-006
  0.822556E-006  0.973770E-006  0.708750E-007  0.253681       0.812176       0.980152       0.749925       0.741367E-002  0.967571       0.942833     
  0.115529E-010  0.175022E-010  0.161744E-008  0.180446E-011  0.108968E-010  0.878080E-010  0.398579E-014  0.371318E-001  0.358327       0.852072     
  0.586561       0.954596E-004  0.864571       0.789847     
 
  0.678200E-008  0.419295E-008  0.216295E-007  0.334854E-008  0.115679E-007  0.276258E-008  0.176825E-016  0.143746E-001  0.624696E-001  0.460683     
  0.478324       0.428905E-003  0.762382       0.662215       0.120675E-008  0.973004E-009  0.128436E-007  0.724375E-009  0.249466E-008  0.111578E-008
  0.488356E-013  0.231486E-001  0.133888       0.622754       0.515187       0.257112E-003  0.801189       0.708925       0.538641E-008  0.564738E-008
  0.787528E-007  0.233237E-008  0.837451E-008  0.172528E-007  0.196827E-010  0.104710       0.583715       0.933734       0.660721       0.876354E-003
  0.923913       0.871726       0.124876E-009  0.126533E-009  0.639693E-008  0.634281E-010  0.250876E-009  0.371777E-009  0.157405E-013  0.294987E-001
  0.222320       0.729912       0.530388       0.150613E-003  0.826420       0.737210       0.511737E-006  0.314341E-006  0.160617E-005  0.322165E-006
  0.822517E-006  0.963020E-006  0.623912E-007  0.235724       0.802315       0.978866       0.749023       0.593593E-002  0.965724       0.939544     
  0.115523E-010  0.148523E-010  0.138807E-008  0.180407E-011  0.108949E-010  0.815386E-010  0.201487E-014  0.294346E-001  0.320245       0.832107     
  0.577444       0.580955E-004  0.853721       0.775264     
 
  0.678177E-008  0.371744E-008  0.183995E-007  0.334805E-008  0.115662E-007  0.226349E-008  0.176825E-016  0.977975E-002  0.451556E-001  0.409788     
  0.444530       0.303183E-003  0.745085       0.641126       0.120670E-008  0.846623E-009  0.109757E-007  0.724250E-009  0.249430E-008  0.958069E-009
  0.367112E-013  0.170226E-001  0.105590       0.575738       0.490492       0.178246E-003  0.785950       0.689729       0.538624E-008  0.527671E-008
  0.734002E-007  0.233205E-008  0.837365E-008  0.166427E-007  0.122824E-010  0.931446E-001  0.559683       0.926779       0.657185       0.652576E-003
  0.918861       0.863872       0.124871E-009  0.108716E-009  0.553293E-008  0.634185E-010  0.250847E-009  0.336759E-009  0.678189E-014  0.232243E-001
  0.190948       0.698258       0.515881       0.101713E-003  0.814477       0.721764       0.511729E-006  0.308972E-006  0.156851E-005  0.322145E-006
  0.822480E-006  0.953605E-006  0.558961E-007  0.220910       0.794035       0.977773       0.748261       0.487167E-002  0.964139       0.936759     
  0.115518E-010  0.129104E-010  0.120380E-008  0.180373E-011  0.108933E-010  0.762330E-010  0.718922E-015  0.238031E-001  0.288561       0.813454     
  0.568933       0.370590E-004  0.844049       0.762416     
 
  0.678159E-008  0.333282E-008  0.156744E-007  0.334764E-008  0.115649E-007  0.187332E-008  0.176825E-016  0.687436E-002  0.334978E-001  0.367381     
  0.415124       0.223407E-003  0.730047       0.622907       0.120666E-008  0.750270E-009  0.948720E-008  0.724148E-009  0.249402E-008  0.828450E-009
  0.309929E-013  0.128522E-001  0.848639E-001  0.534575       0.468267       0.129138E-003  0.772646       0.673088       0.538610E-008  0.496438E-008
  0.689141E-007  0.233178E-008  0.837292E-008  0.161038E-007  0.789900E-011  0.840211E-001  0.539185       0.920471       0.654007       0.504056E-003
  0.914436       0.857076       0.124868E-009  0.953996E-010  0.486000E-008  0.634109E-010  0.250824E-009  0.307254E-009  0.197513E-014  0.187181E-001
  0.166211       0.669831       0.502682       0.719722E-004  0.804042       0.708371       0.511723E-006  0.304270E-006  0.153695E-005  0.322130E-006
  0.822449E-006  0.945554E-006  0.508345E-007  0.208840       0.787157       0.976833       0.747611       0.410257E-002  0.962800       0.934428     
  0.115515E-010  0.114583E-010  0.106153E-008  0.180345E-011  0.108920E-010  0.717957E-010  0.212117E-015  0.197130E-001  0.262959       0.796784     
  0.561308       0.249070E-004  0.835675       0.751378     
 
  0.678143E-008  0.303752E-008  0.136720E-007  0.334730E-008  0.115638E-007  0.158538E-008  0.176825E-016  0.508909E-002  0.259674E-001  0.334138     
  0.391164       0.173605E-003  0.717669       0.608003       0.120663E-008  0.678081E-009  0.835801E-008  0.724064E-009  0.249378E-008  0.726910E-009
  0.281347E-013  0.101167E-001  0.704064E-001  0.501019       0.449661       0.990135E-004  0.761672       0.659446       0.538598E-008  0.471375E-008
  0.653380E-007  0.233155E-008  0.837231E-008  0.156536E-007  0.537301E-011  0.771824E-001  0.522832       0.915195       0.651356       0.407782E-003
  0.910814       0.851570       0.124865E-009  0.855062E-010  0.434782E-008  0.634046E-010  0.250805E-009  0.283486E-009  0.445542E-015  0.156102E-001
  0.147726       0.646149       0.491539       0.541103E-004  0.795459       0.697427       0.511718E-006  0.300450E-006  0.151183E-005  0.322116E-006
  0.822422E-006  0.939032E-006  0.470432E-007  0.199520       0.781795       0.976098       0.747103       0.356582E-002  0.961731       0.932589     
  0.115511E-010  0.104148E-010  0.956068E-009  0.180322E-011  0.108909E-010  0.683643E-010  0.640240E-016  0.169016E-001  0.244272       0.783893     
  0.555362       0.179353E-004  0.829124       0.742823     
 
 )
