TRANSMISSION%TAU_TOTAL = (
  0.788294       0.170610E-013  0.550662       0.386651       0.766701       0.192875E-021  0.571514       0.409729       0.810671       0.344468E-010
  0.874233       0.800325       0.751719       0.192875E-021  0.633992       0.480402       0.880525       0.377653E-003  0.963321       0.943980     
  0.730825       0.192875E-021  0.713927       0.582568     
 )
TRANSMISSION%TAU_LAYERS = (
   1.00000        1.00000        1.00000        1.00000        1.00000        1.00000        1.00000        1.00000        1.00000        1.00000     
   1.00000        1.00000        1.00000        1.00000        1.00000        1.00000        1.00000        1.00000        1.00000        1.00000     
   1.00000        1.00000        1.00000        1.00000     
 
   1.00000       0.999989        1.00000        1.00000        1.00000       0.999989        1.00000        1.00000        1.00000       0.999989     
   1.00000        1.00000        1.00000       0.999989        1.00000        1.00000        1.00000       0.999991        1.00000        1.00000     
   1.00000       0.999985        1.00000        1.00000     
 
   1.00000       0.999954        1.00000        1.00000        1.00000       0.999957        1.00000        1.00000        1.00000       0.999956     
   1.00000        1.00000        1.00000       0.999957        1.00000        1.00000        1.00000       0.999965        1.00000        1.00000     
   1.00000       0.999940        1.00000        1.00000     
 
   1.00000       0.999864        1.00000        1.00000        1.00000       0.999879        1.00000        1.00000        1.00000       0.999879     
  0.999999        1.00000        1.00000       0.999881        1.00000        1.00000        1.00000       0.999904       0.999999        1.00000     
   1.00000       0.999838       0.999999        1.00000     
 
  0.999999       0.999685       0.999999       0.999999       0.999999       0.999722       0.999999       0.999999       0.999999       0.999729     
  0.999998       0.999999       0.999999       0.999727       0.999999       0.999999        1.00000       0.999786       0.999998       0.999999     
  0.999999       0.999646       0.999998       0.999999     
 
  0.999999       0.999386       0.999996       0.999998       0.999999       0.999449       0.999996       0.999998       0.999999       0.999478     
  0.999995       0.999998       0.999999       0.999454       0.999996       0.999998       0.999999       0.999586       0.999996       0.999998     
  0.999999       0.999331       0.999995       0.999998     
 
  0.999998       0.998969       0.999990       0.999995       0.999998       0.999040       0.999988       0.999995       0.999998       0.999110     
  0.999989       0.999995       0.999998       0.999042       0.999987       0.999994       0.999999       0.999287       0.999991       0.999996     
  0.999997       0.998886       0.999987       0.999994     
 
  0.999997       0.998503       0.999977       0.999989       0.999996       0.998562       0.999973       0.999988       0.999997       0.998681     
  0.999974       0.999989       0.999996       0.998558       0.999968       0.999986       0.999998       0.998932       0.999982       0.999992     
  0.999995       0.998386       0.999967       0.999986     
 
  0.999994       0.997982       0.999951       0.999979       0.999993       0.998016       0.999942       0.999975       0.999994       0.998199     
  0.999947       0.999978       0.999993       0.998010       0.999934       0.999971       0.999996       0.998529       0.999967       0.999987     
  0.999992       0.997826       0.999924       0.999969     
 
  0.999989       0.997458       0.999911       0.999962       0.999988       0.997457       0.999895       0.999955       0.999989       0.997705     
  0.999906       0.999964       0.999987       0.997441       0.999882       0.999949       0.999992       0.998109       0.999948       0.999979     
  0.999985       0.997258       0.999856       0.999945     
 
  0.999980       0.996911       0.999851       0.999938       0.999978       0.996870       0.999825       0.999926       0.999980       0.997182     
  0.999852       0.999943       0.999976       0.996828       0.999803       0.999915       0.999986       0.997656       0.999925       0.999968     
  0.999972       0.996657       0.999764       0.999911     
 
  0.999964       0.996331       0.999770       0.999903       0.999960       0.996249       0.999731       0.999886       0.999964       0.996619     
  0.999795       0.999917       0.999956       0.996165       0.999694       0.999869       0.999975       0.997165       0.999900       0.999955     
  0.999950       0.995999       0.999657       0.999867     
 
  0.999936       0.995664       0.999665       0.999856       0.999930       0.995519       0.999611       0.999833       0.999937       0.995952     
  0.999735       0.999887       0.999922       0.995377       0.999559       0.999810       0.999955       0.996587       0.999871       0.999938     
  0.999911       0.995200       0.999533       0.999813     
 
  0.999891       0.994845       0.999536       0.999795       0.999880       0.994595       0.999466       0.999766       0.999892       0.995115     
  0.999666       0.999851       0.999866       0.994376       0.999403       0.999738       0.999923       0.995867       0.999833       0.999917     
  0.999848       0.994172       0.999397       0.999748     
 
  0.999817       0.993813       0.999381       0.999719       0.999800       0.993397       0.999301       0.999687       0.999819       0.994022     
  0.999584       0.999807       0.999777       0.993064       0.999228       0.999655       0.999871       0.994936       0.999784       0.999889     
  0.999746       0.992825       0.999240       0.999670     
 
  0.999702       0.992515       0.999200       0.999628       0.999673       0.991854       0.999116       0.999595       0.999705       0.992593     
  0.999479       0.999751       0.999636       0.991344       0.999034       0.999561       0.999790       0.993724       0.999719       0.999854     
  0.999586       0.991071       0.999052       0.999575     
 
  0.999527       0.990919       0.998993       0.999523       0.999482       0.989924       0.998909       0.999490       0.999531       0.990770     
  0.999342       0.999681       0.999422       0.989155       0.998809       0.999449       0.999665       0.992179       0.999630       0.999809     
  0.999344       0.988851       0.998824       0.999460     
 
  0.999273       0.989004       0.998761       0.999406       0.999203       0.987564       0.998664       0.999368       0.999277       0.988477     
  0.999162       0.999592       0.999112       0.986420       0.998535       0.999314       0.999483       0.990231       0.999514       0.999751     
  0.998994       0.986095       0.998541       0.999317     
 
  0.998924       0.986720       0.998509       0.999280       0.998821       0.984731       0.998376       0.999224       0.998929       0.985660     
  0.998934       0.999479       0.998687       0.983071       0.998206       0.999151       0.999232       0.987826       0.999364       0.999677     
  0.998515       0.982762       0.998196       0.999145     
 
  0.998462       0.984065       0.998240       0.999144       0.998315       0.981387       0.998049       0.999059       0.998466       0.982220     
  0.998659       0.999341       0.998125       0.978998       0.997824       0.998959       0.998897       0.984880       0.999175       0.999582     
  0.997882       0.978777       0.997793       0.998941     
 
  0.997870       0.981039       0.997960       0.999001       0.997667       0.977554       0.997695       0.998877       0.997872       0.978078     
  0.998347       0.999180       0.997406       0.974112       0.997401       0.998740       0.998464       0.981347       0.998953       0.999468     
  0.997075       0.974083       0.997349       0.998710     
 
  0.997131       0.977557       0.997679       0.998854       0.996858       0.973229       0.997325       0.998681       0.997129       0.973208     
  0.998013       0.999001       0.996509       0.968461       0.996951       0.998501       0.997921       0.977220       0.998710       0.999338     
  0.996070       0.968662       0.996883       0.998461     
 
  0.996213       0.973448       0.997410       0.998705       0.995851       0.968252       0.996958       0.998475       0.996203       0.967408     
  0.997679       0.998812       0.995394       0.961867       0.996499       0.998249       0.997242       0.972354       0.998463       0.999198     
  0.994821       0.962274       0.996416       0.998197     
 
  0.995090       0.968544       0.997165       0.998557       0.994619       0.962491       0.996612       0.998267       0.995068       0.960508     
  0.997355       0.998615       0.994030       0.954334       0.996059       0.997987       0.996408       0.966592       0.998224       0.999052     
  0.993294       0.954780       0.995965       0.997924     
 
  0.993727       0.962494       0.996941       0.998405       0.993127       0.955845       0.996282       0.998053       0.993694       0.952793     
  0.997036       0.998408       0.992379       0.946410       0.995623       0.997712       0.995396       0.960272       0.997990       0.998900     
  0.991447       0.946219       0.995526       0.997638     
 
  0.992079       0.955608       0.996714       0.998238       0.991333       0.947887       0.995949       0.997822       0.992040       0.943708     
  0.996710       0.998184       0.990396       0.937071       0.995176       0.997415       0.994178       0.952963       0.997751       0.998736     
  0.989229       0.935384       0.995083       0.997332     
 
  0.990148       0.945835       0.996462       0.998043       0.989229       0.938450       0.995594       0.997567       0.990101       0.933554     
  0.996361       0.997935       0.988073       0.926563       0.994698       0.997088       0.992748       0.945030       0.997501       0.998558     
  0.986628       0.921652       0.994616       0.996996     
 
  0.987896       0.931982       0.996161       0.997811       0.986780       0.925845       0.995206       0.997281       0.987843       0.921873     
  0.995979       0.997657       0.985369       0.914560       0.994180       0.996725       0.991081       0.935985       0.997234       0.998363     
  0.983601       0.902617       0.994112       0.996623     
 
  0.985325       0.911213       0.995801       0.997537       0.983989       0.905082       0.994784       0.996964       0.985269       0.908749     
  0.995564       0.997353       0.982286       0.901163       0.993618       0.996329       0.989182       0.924140       0.996949       0.998153     
  0.980149       0.870783       0.993565       0.996209     
 
  0.982394       0.871982       0.995364       0.997206       0.980804       0.861460       0.994303       0.996596       0.982337       0.890109     
  0.995117       0.997021       0.978773       0.880475       0.993013       0.995896       0.987019       0.906614       0.996644       0.997923     
  0.976211       0.824737       0.992975       0.995749     
 
  0.979109       0.804267       0.994840       0.996803       0.977229       0.777534       0.993726       0.996140       0.979052       0.856880     
  0.994639       0.996660       0.974838       0.843251       0.992369       0.995424       0.984596       0.878395       0.996317       0.997673     
  0.971797       0.760962       0.992333       0.995231     
 
  0.975407       0.692885       0.994184       0.996234       0.973189       0.637925       0.992996       0.995450       0.975366       0.802064     
  0.994114       0.996249       0.970417       0.776538       0.991672       0.994887       0.981878       0.840053       0.995963       0.997395     
  0.966836       0.677644       0.991592       0.994615     
 
  0.971306       0.556843       0.993374       0.995431       0.968705       0.491961       0.992090       0.994463       0.971304       0.731107     
  0.993524       0.995785       0.965540       0.667565       0.990889       0.994250       0.978883       0.797203       0.995586       0.997096     
  0.961355       0.567900       0.990706       0.993818     
 
  0.966699       0.404831       0.992306       0.994115       0.963676       0.353629       0.990914       0.992966       0.966798       0.640880     
  0.992828       0.995207       0.960090       0.502048       0.989894       0.993239       0.975565       0.748085       0.995168       0.996760     
  0.955236       0.428833       0.989602       0.992659     
 
  0.961575       0.266773       0.990849       0.991929       0.958122       0.238157       0.989390       0.990759       0.961880       0.534297     
  0.992005       0.994448       0.954059       0.332907       0.988558       0.991469       0.971946       0.664676       0.994688       0.996343     
  0.948504       0.293633       0.988208       0.990920     
 
  0.955884       0.156561       0.988901       0.988638       0.952006       0.147886       0.987463       0.987724       0.956508       0.414397     
  0.991014       0.993385       0.947378       0.194736       0.986759       0.988645       0.968000       0.554852       0.994118       0.995776     
  0.941122       0.187526       0.986457       0.988495     
 
  0.949541       0.809122E-001  0.986137       0.983587       0.945242       0.814129E-001  0.984841       0.983214       0.950663       0.292357     
  0.989812       0.991891       0.939998       0.100495       0.984275       0.984350       0.963730       0.448296       0.993450       0.995073     
  0.933036       0.107276       0.984182       0.984996     
 
  0.942505       0.356562E-001  0.982273       0.976264       0.937866       0.405670E-001  0.981482       0.977216       0.944337       0.186679     
  0.988260       0.989608       0.931887       0.453572E-001  0.980810       0.978011       0.959149       0.346253       0.992644       0.994116     
  0.924272       0.556282E-001  0.981253       0.980171     
 
  0.934708       0.128509E-001  0.976810       0.965889       0.929853       0.175626E-001  0.977110       0.969279       0.937558       0.111116     
  0.986334       0.986540       0.922989       0.169892E-001  0.975920       0.968907       0.954259       0.251442       0.991665       0.992783     
  0.914821       0.254152E-001  0.977442       0.973643     
 
  0.926089       0.388897E-002  0.969174       0.951715       0.921104       0.636554E-002  0.971196       0.958454       0.930328       0.613950E-001
  0.983908       0.982427       0.913259       0.515839E-002  0.969139       0.956363       0.949061       0.169933       0.990439       0.990884     
  0.904687       0.100349E-001  0.972550       0.965024     
 
  0.916759       0.104214E-002  0.959350       0.934099       0.911499       0.180079E-002  0.962750       0.943152       0.922663       0.302314E-001
  0.980847       0.977044       0.902708       0.119877E-002  0.959877       0.939667       0.943573       0.107182       0.988919       0.988331     
  0.893852       0.327806E-002  0.966070       0.953577     
 
  0.906515       0.155849E-003  0.945828       0.910739       0.900980       0.335351E-003  0.951050       0.922581       0.914557       0.131563E-001
  0.976951       0.970036       0.891377       0.231917E-003  0.947943       0.918871       0.937828       0.641796E-001  0.987081       0.985127     
  0.882368       0.898640E-003  0.957966       0.939420     
 
  0.894841       0.129453E-004  0.924726       0.875769       0.889555       0.441716E-004  0.935015       0.895296       0.906045       0.499441E-002
  0.971986       0.961048       0.879343       0.373911E-004  0.932680       0.893032       0.931880       0.364892E-001  0.984961       0.981370     
  0.870295       0.223216E-003  0.947673       0.921634     
 
  0.881330       0.819665E-009  0.891204       0.823180       0.877105       0.240788E-006  0.912511       0.858638       0.897275       0.179048E-002
  0.966073       0.950422       0.866654       0.222863E-006  0.913274       0.861317       0.925824       0.210803E-001  0.982659       0.977256     
  0.857701       0.186872E-004  0.934523       0.899420     
 
  0.865990       0.819665E-009  0.843203       0.752244       0.863808       0.825015E-007  0.883488       0.813458       0.888390       0.610225E-003
  0.959379       0.938590       0.853596       0.679670E-007  0.890552       0.825427       0.919735       0.121465E-001  0.980164       0.972837     
  0.844844       0.417570E-005  0.919116       0.874005     
 
  0.849290       0.819665E-009  0.783223       0.668585       0.849851       0.128955E-007  0.848174       0.760740       0.879547       0.219718E-003
  0.952085       0.925916       0.840405       0.715067E-008  0.865232       0.786636       0.913712       0.700657E-002  0.977536       0.968247     
  0.831972       0.898197E-006  0.902101       0.846555     
 
  0.831900       0.819665E-009  0.717116       0.581887       0.835120       0.256105E-008  0.804925       0.699264       0.870771       0.703845E-004
  0.944170       0.912380       0.827003       0.151023E-008  0.836035       0.743636       0.907804       0.405897E-002  0.974982       0.963739     
  0.818987       0.167949E-006  0.881908       0.815192     
 
  0.814914       0.819665E-009  0.652799       0.502662       0.820446       0.256105E-008  0.758773       0.636723       0.862323       0.185339E-004
  0.936053       0.898735       0.814050       0.447619E-009  0.806391       0.701482       0.902135       0.241915E-002  0.972424       0.959305     
  0.806541       0.290236E-007  0.861636       0.784627     
 
  0.798374       0.819665E-009  0.590397       0.430380       0.806037       0.256105E-008  0.710888       0.574965       0.854276       0.393231E-005
  0.927735       0.884936       0.801569       0.447619E-009  0.776002       0.659860       0.896778       0.143471E-002  0.969915       0.955001     
  0.794771       0.290236E-007  0.841695       0.755571     
 
  0.781508       0.111232E-016  0.525164       0.359463       0.791871       0.315497E-015  0.661201       0.513519       0.846679       0.755447E-006
  0.919298       0.871148       0.789420       0.152317E-013  0.743426       0.616424       0.891810       0.940390E-003  0.967821       0.951460     
  0.783509       0.483750E-010  0.820380       0.725002     
 
  0.766386       0.192875E-021  0.470587       0.303829       0.778583       0.192875E-021  0.613849       0.457610       0.839734       0.121672E-006
  0.911141       0.857992       0.778121       0.192875E-021  0.711694       0.575482       0.887315       0.646718E-003  0.965981       0.948392     
  0.773208       0.358006E-014  0.800024       0.696518     
 
  0.752738       0.192875E-021  0.423462       0.258569       0.766555       0.192875E-021  0.571008       0.409168       0.833553       0.215200E-007
  0.903561       0.845918       0.767948       0.192875E-021  0.682203       0.538526       0.883350       0.470606E-003  0.964419       0.945794     
  0.764050       0.282120E-018  0.781254       0.670809     
 
  0.740756       0.192875E-021  0.383946       0.222672       0.755968       0.192875E-021  0.533528       0.368512       0.828183       0.477068E-008
  0.896772       0.835231       0.759042       0.192875E-021  0.655860       0.506428       0.879926       0.360431E-003  0.963088       0.943596     
  0.756108       0.192875E-021  0.764631       0.648508     
 
  0.730844       0.192875E-021  0.352774       0.195717       0.747197       0.192875E-021  0.502960       0.336537       0.823812       0.140706E-008
  0.891138       0.826448       0.751719       0.192875E-021  0.633992       0.480402       0.877146       0.292727E-003  0.962043       0.941879     
  0.749767       0.192875E-021  0.751750       0.631515     
 
 )
