TRANSMISSION%TAU_TOTAL = (
  0.769474       0.816996       0.825996       0.675358       0.252240E-001  0.154923       0.192875E-021  0.159128E-003  0.496180       0.317067     
  0.515014       0.410174       0.493355E-001  0.131843E-001  0.743747E-002  0.692766E-004  0.761040       0.790567       0.803191       0.624637     
  0.164802E-001  0.126175       0.992550E-014  0.151072E-003  0.497851       0.246976       0.538945       0.436152       0.458935E-001  0.908333E-002
  0.518968E-002  0.340577E-004  0.866118       0.808560       0.826163       0.619129       0.186665E-001  0.155104       0.125549E-006  0.983512E-002
  0.745324       0.314852       0.866052       0.828113       0.178101       0.339254E-001  0.192799E-001  0.224606E-003  0.765362       0.767628     
  0.784402       0.575793       0.117217E-001  0.111382       0.821655E-008  0.356907E-003  0.537373       0.229384       0.605921       0.509519     
  0.567098E-001  0.858797E-002  0.493746E-002  0.291841E-004  0.936763       0.877383       0.888848       0.735214       0.494418E-001  0.260970     
  0.227068E-003  0.105013       0.879750       0.423806       0.962192       0.957020       0.373527       0.127554       0.727208E-001  0.252025E-002
  0.773574       0.734892       0.756833       0.514014       0.670808E-002  0.895525E-001  0.113598E-006  0.528977E-003  0.574437       0.240869     
  0.695303       0.617824       0.633531E-001  0.630810E-002  0.367594E-002  0.149080E-004
 )
TRANSMISSION%TAU_LAYERS = (
   1.00000        1.00000        1.00000        1.00000        1.00000        1.00000        1.00000        1.00000        1.00000        1.00000     
   1.00000        1.00000        1.00000        1.00000        1.00000        1.00000        1.00000        1.00000        1.00000        1.00000     
   1.00000        1.00000        1.00000        1.00000        1.00000        1.00000        1.00000        1.00000        1.00000        1.00000     
   1.00000        1.00000        1.00000        1.00000        1.00000        1.00000        1.00000        1.00000        1.00000        1.00000     
   1.00000        1.00000        1.00000        1.00000        1.00000        1.00000        1.00000        1.00000        1.00000        1.00000     
   1.00000        1.00000        1.00000        1.00000        1.00000        1.00000        1.00000        1.00000        1.00000        1.00000     
   1.00000        1.00000        1.00000        1.00000        1.00000        1.00000        1.00000        1.00000        1.00000        1.00000     
   1.00000        1.00000        1.00000        1.00000        1.00000        1.00000        1.00000        1.00000        1.00000        1.00000     
   1.00000        1.00000        1.00000        1.00000        1.00000        1.00000        1.00000        1.00000        1.00000        1.00000     
   1.00000        1.00000        1.00000        1.00000        1.00000        1.00000     
 
   1.00000        1.00000        1.00000        1.00000       0.999870       0.999989       0.999990       0.999999        1.00000       0.999975     
   1.00000        1.00000       0.999992       0.999953       0.999896       0.999716        1.00000        1.00000        1.00000        1.00000     
  0.999875       0.999989       0.999990       0.999999        1.00000       0.999974        1.00000        1.00000       0.999994       0.999963     
  0.999919       0.999753        1.00000        1.00000        1.00000        1.00000       0.999839       0.999988       0.999989       0.999998     
   1.00000       0.999976        1.00000        1.00000       0.999982       0.999920       0.999818       0.999593        1.00000        1.00000     
   1.00000        1.00000       0.999869       0.999988       0.999989       0.999999        1.00000       0.999969        1.00000        1.00000     
  0.999994       0.999963       0.999919       0.999752        1.00000        1.00000        1.00000        1.00000       0.999864       0.999991     
  0.999992       0.999999        1.00000       0.999981        1.00000        1.00000       0.999981       0.999924       0.999825       0.999611     
   1.00000        1.00000        1.00000        1.00000       0.999809       0.999984       0.999986       0.999998        1.00000       0.999966     
   1.00000        1.00000       0.999983       0.999914       0.999807       0.999566     
 
   1.00000        1.00000        1.00000        1.00000       0.999663       0.999967       0.999956       0.999994        1.00000       0.999946     
   1.00000        1.00000       0.999965       0.999826       0.999613       0.999315        1.00000        1.00000        1.00000        1.00000     
  0.999676       0.999966       0.999959       0.999995        1.00000       0.999951        1.00000        1.00000       0.999972       0.999851     
  0.999670       0.999381        1.00000        1.00000        1.00000        1.00000       0.999586       0.999964       0.999958       0.999994     
   1.00000       0.999947        1.00000        1.00000       0.999933       0.999733       0.999395       0.999071        1.00000        1.00000     
   1.00000        1.00000       0.999667       0.999963       0.999959       0.999995        1.00000       0.999945        1.00000        1.00000     
  0.999973       0.999852       0.999673       0.999384        1.00000        1.00000        1.00000        1.00000       0.999629       0.999972     
  0.999967       0.999995        1.00000       0.999955        1.00000        1.00000       0.999930       0.999745       0.999411       0.999076     
   1.00000        1.00000        1.00000        1.00000       0.999537       0.999953       0.999943       0.999992        1.00000       0.999923     
   1.00000        1.00000       0.999935       0.999712       0.999358       0.999039     
 
   1.00000        1.00000        1.00000        1.00000       0.999350       0.999926       0.999870       0.999983       0.999999       0.999881     
   1.00000        1.00000       0.999887       0.999538       0.998976       0.998698        1.00000        1.00000        1.00000        1.00000     
  0.999361       0.999923       0.999884       0.999985       0.999999       0.999874        1.00000        1.00000       0.999899       0.999563     
  0.999034       0.998757        1.00000        1.00000        1.00000        1.00000       0.999230       0.999920       0.999885       0.999982     
  0.999999       0.999865        1.00000        1.00000       0.999823       0.999386       0.998622       0.998360        1.00000        1.00000     
   1.00000        1.00000       0.999345       0.999916       0.999886       0.999985       0.999999       0.999861        1.00000        1.00000     
  0.999899       0.999555       0.999020       0.998749        1.00000        1.00000        1.00000        1.00000       0.999289       0.999938     
  0.999910       0.999985       0.999999       0.999868        1.00000        1.00000       0.999820       0.999421       0.998673       0.998372     
   1.00000        1.00000        1.00000        1.00000       0.999161       0.999896       0.999846       0.999978       0.999999       0.999812     
   1.00000        1.00000       0.999823       0.999335       0.998534       0.998312     
 
  0.999999        1.00000        1.00000        1.00000       0.998897       0.999858       0.999700       0.999957       0.999998       0.999669     
   1.00000        1.00000       0.999712       0.999052       0.997919       0.997792       0.999999       0.999999        1.00000        1.00000     
  0.998881       0.999849       0.999735       0.999961       0.999998       0.999617        1.00000        1.00000       0.999711       0.999040     
  0.997898       0.997782       0.999999        1.00000        1.00000        1.00000       0.998745       0.999848       0.999744       0.999958     
  0.999998       0.999628        1.00000        1.00000       0.999615       0.998879       0.997517       0.997416       0.999999       0.999999     
  0.999999        1.00000       0.998847       0.999836       0.999739       0.999960       0.999998       0.999586        1.00000        1.00000     
  0.999704       0.999009       0.997838       0.997739        1.00000        1.00000        1.00000        1.00000       0.998858       0.999883     
  0.999798       0.999966       0.999998       0.999657        1.00000        1.00000       0.999635       0.998972       0.997684       0.997518     
  0.999999       0.999999       0.999999       0.999999       0.998635       0.999804       0.999663       0.999946       0.999997       0.999472     
   1.00000        1.00000       0.999600       0.998782       0.997350       0.997310     
 
  0.999999       0.999999       0.999999       0.999999       0.998219       0.999755       0.999418       0.999898       0.999995       0.999063     
  0.999999       0.999999       0.999370       0.998394       0.996494       0.996501       0.999999       0.999999       0.999999       0.999999     
  0.998147       0.999737       0.999476       0.999905       0.999994       0.998892       0.999999       0.999999       0.999335       0.998334     
  0.996366       0.996383       0.999999       0.999999       0.999999       0.999999       0.998067       0.999742       0.999506       0.999906     
  0.999994       0.998956       0.999999       0.999999       0.999266       0.998253       0.996169       0.996183       0.999999       0.999999     
  0.999999       0.999999       0.998052       0.999712       0.999481       0.999903       0.999994       0.998839       0.999999       0.999999     
  0.999292       0.998260       0.996208       0.996236       0.999999       0.999999       0.999999       0.999999       0.998293       0.999803     
  0.999609       0.999927       0.999995       0.999118       0.999999       0.999999       0.999351       0.998429       0.996512       0.996467     
  0.999998       0.999999       0.999999       0.999999       0.997862       0.999669       0.999365       0.999879       0.999992       0.998553     
  0.999999       0.999999       0.999205       0.998102       0.995889       0.995948     
 
  0.999998       0.999998       0.999998       0.999998       0.997222       0.999616       0.999027       0.999784       0.999986       0.997513     
  0.999999       0.999997       0.998814       0.997610       0.994771       0.994768       0.999998       0.999998       0.999998       0.999998     
  0.997059       0.999584       0.999093       0.999792       0.999984       0.997195       0.999998       0.999997       0.998720       0.997498     
  0.994520       0.994510       0.999998       0.999998       0.999998       0.999998       0.997108       0.999602       0.999160       0.999808     
  0.999984       0.997219       0.999998       0.999997       0.998732       0.997513       0.994557       0.994560       0.999997       0.999998     
  0.999998       0.999998       0.996829       0.999542       0.999095       0.999784       0.999983       0.997124       0.999998       0.999996     
  0.998593       0.997351       0.994184       0.994161       0.999998       0.999999       0.999999       0.999999       0.997530       0.999699     
  0.999327       0.999854       0.999987       0.997741       0.999999       0.999998       0.998932       0.997787       0.995132       0.995121     
  0.999997       0.999998       0.999998       0.999998       0.996713       0.999493       0.998948       0.999746       0.999979       0.996355     
  0.999998       0.999996       0.998570       0.997266       0.994058       0.994060     
 
  0.999996       0.999997       0.999997       0.999997       0.995989       0.999454       0.998596       0.999610       0.999965       0.994467     
  0.999997       0.999994       0.998099       0.996717       0.992836       0.992682       0.999996       0.999997       0.999997       0.999996     
  0.995697       0.999405       0.998648       0.999611       0.999962       0.994100       0.999996       0.999992       0.997922       0.996526     
  0.992414       0.992230       0.999996       0.999997       0.999997       0.999997       0.995918       0.999442       0.998759       0.999653     
  0.999961       0.993851       0.999997       0.999993       0.998042       0.996641       0.992690       0.992550       0.999995       0.999996     
  0.999997       0.999996       0.995327       0.999341       0.998645       0.999592       0.999961       0.994023       0.999995       0.999991     
  0.997703       0.996293       0.991901       0.991676       0.999997       0.999998       0.999998       0.999998       0.996633       0.999582     
  0.998993       0.999744       0.999971       0.995115       0.999998       0.999995       0.998426       0.997095       0.993655       0.993563     
  0.999995       0.999996       0.999996       0.999995       0.995243       0.999285       0.998484       0.999536       0.999949       0.992022     
  0.999996       0.999991       0.997702       0.996206       0.991801       0.991595     
 
  0.999993       0.999995       0.999995       0.999994       0.994427       0.999236       0.998117       0.999345       0.999921       0.988804     
  0.999993       0.999987       0.997141       0.995472       0.990273       0.989777       0.999992       0.999994       0.999995       0.999993     
  0.993965       0.999160       0.998147       0.999326       0.999916       0.988378       0.999992       0.999984       0.996840       0.995146     
  0.989595       0.989032       0.999993       0.999995       0.999995       0.999994       0.994472       0.999232       0.998312       0.999414     
  0.999910       0.987376       0.999994       0.999986       0.997151       0.995447       0.990270       0.989815       0.999991       0.999994     
  0.999994       0.999992       0.993475       0.999071       0.998141       0.999291       0.999915       0.988403       0.999990       0.999982     
  0.996542       0.994818       0.988920       0.988274       0.999995       0.999996       0.999997       0.999996       0.995609       0.999438     
  0.998614       0.999578       0.999936       0.990172       0.999996       0.999992       0.997842       0.996257       0.991932       0.991619     
  0.999990       0.999993       0.999993       0.999991       0.993360       0.998999       0.997971       0.999207       0.999875       0.983837     
  0.999991       0.999981       0.996478       0.994595       0.988614       0.987997     
 
  0.999987       0.999991       0.999991       0.999989       0.992654       0.998943       0.997638       0.998982       0.999836       0.980354     
  0.999989       0.999976       0.995976       0.993792       0.987027       0.986041       0.999986       0.999990       0.999991       0.999987     
  0.991986       0.998830       0.997636       0.998929       0.999827       0.979852       0.999985       0.999971       0.995516       0.993268     
  0.986000       0.984905       0.999987       0.999991       0.999991       0.999989       0.992900       0.998957       0.997857       0.999081     
  0.999812       0.977919       0.999990       0.999977       0.996107       0.993861       0.987262       0.986373       0.999985       0.999989     
  0.999990       0.999985       0.991339       0.998707       0.997623       0.998866       0.999825       0.979861       0.999982       0.999967     
  0.995110       0.992791       0.985070       0.983845       0.999991       0.999994       0.999994       0.999993       0.994475       0.999251     
  0.998224       0.999343       0.999873       0.982820       0.999995       0.999987       0.997172       0.995188       0.989824       0.989173     
  0.999982       0.999988       0.999988       0.999984       0.991258       0.998615       0.997452       0.998755       0.999734       0.972573     
  0.999985       0.999964       0.994984       0.992370       0.984515       0.983379     
 
  0.999977       0.999985       0.999984       0.999980       0.990502       0.998520       0.997137       0.998470       0.999667       0.967606     
  0.999982       0.999960       0.994450       0.991282       0.982412       0.980829       0.999975       0.999983       0.999983       0.999977     
  0.989600       0.998358       0.997098       0.998367       0.999650       0.966964       0.999977       0.999952       0.993806       0.990504     
  0.980933       0.979196       0.999977       0.999985       0.999984       0.999981       0.991008       0.998563       0.997375       0.998603     
  0.999636       0.965244       0.999986       0.999963       0.994783       0.991559       0.983082       0.981659       0.999972       0.999981     
  0.999981       0.999974       0.988667       0.998176       0.997061       0.998252       0.999643       0.966839       0.999972       0.999944     
  0.993192       0.989739       0.979475       0.977549       0.999984       0.999989       0.999989       0.999988       0.993046       0.998977     
  0.997803       0.998994       0.999767       0.973092       0.999993       0.999980       0.996313       0.993635       0.986872       0.985729     
  0.999968       0.999978       0.999978       0.999973       0.988727       0.998064       0.996902       0.998119       0.999479       0.957725     
  0.999976       0.999941       0.993086       0.989156       0.978808       0.977090     
 
  0.999961       0.999974       0.999972       0.999966       0.987765       0.997862       0.996601       0.997797       0.999380       0.951142     
  0.999972       0.999937       0.992443       0.987732       0.976061       0.973896       0.999957       0.999971       0.999970       0.999962     
  0.986614       0.997634       0.996525       0.997634       0.999344       0.949971       0.999964       0.999925       0.991601       0.986650     
  0.974051       0.971692       0.999961       0.999974       0.999973       0.999968       0.988576       0.997952       0.996852       0.997972     
  0.999382       0.950681       0.999977       0.999947       0.993135       0.988466       0.977566       0.975573       0.999952       0.999968     
  0.999966       0.999956       0.985330       0.997369       0.996450       0.997449       0.999325       0.949627       0.999956       0.999913     
  0.990740       0.985528       0.971927       0.969301       0.999973       0.999982       0.999981       0.999979       0.991181       0.998544     
  0.997345       0.998516       0.999615       0.961901       0.999987       0.999972       0.995232       0.991519       0.982933       0.981202     
  0.999945       0.999963       0.999961       0.999954       0.985484       0.997220       0.996293       0.997300       0.999098       0.939889     
  0.999963       0.999912       0.990699       0.984843       0.971265       0.968948     
 
  0.999934       0.999956       0.999952       0.999944       0.984109       0.996832       0.995983       0.996962       0.998941       0.929859     
  0.999953       0.999906       0.989795       0.982879       0.967539       0.964753       0.999928       0.999952       0.999947       0.999936     
  0.982664       0.996514       0.995849       0.996729       0.998877       0.928104       0.999943       0.999890       0.988738       0.981455     
  0.964932       0.961883       0.999936       0.999957       0.999953       0.999947       0.985311       0.997006       0.996229       0.997189     
  0.999051       0.933653       0.999961       0.999929       0.991122       0.984518       0.970557       0.967872       0.999920       0.999947     
  0.999941       0.999928       0.981022       0.996143       0.995720       0.996466       0.998846       0.927723       0.999931       0.999874     
  0.987678       0.980016       0.962208       0.958763       0.999956       0.999970       0.999967       0.999964       0.988633       0.997851     
  0.996804       0.997901       0.999416       0.948903       0.999977       0.999963       0.993883       0.988733       0.977792       0.975351     
  0.999909       0.999939       0.999933       0.999923       0.981183       0.995940       0.995550       0.996306       0.998578       0.917863     
  0.999938       0.999878       0.987724       0.979298       0.961649       0.958567     
 
  0.999895       0.999929       0.999919       0.999906       0.979260       0.995312       0.995218       0.995971       0.998336       0.902957     
  0.999918       0.999867       0.986420       0.976606       0.956657       0.953024       0.999885       0.999922       0.999911       0.999895     
  0.977480       0.994887       0.994986       0.995659       0.998258       0.901476       0.999903       0.999847       0.985191       0.974909     
  0.953538       0.949480       0.999899       0.999931       0.999921       0.999912       0.980970       0.995624       0.995440       0.996265     
  0.998640       0.913094       0.999929       0.999908       0.988703       0.979638       0.961919       0.958269       0.999872       0.999913     
  0.999901       0.999882       0.975462       0.994396       0.994787       0.995319       0.998230       0.901652       0.999887       0.999828     
  0.983994       0.973237       0.950341       0.945671       0.999930       0.999952       0.999945       0.999939       0.985135       0.996793     
  0.996126       0.997150       0.999165       0.933386       0.999954       0.999951       0.992193       0.985155       0.971197       0.967829     
  0.999856       0.999902       0.999888       0.999872       0.975589       0.994135       0.994585       0.995152       0.997927       0.891172     
  0.999891       0.999838       0.984136       0.972493       0.949906       0.945640     
 
  0.999838       0.999888       0.999868       0.999846       0.973001       0.993210       0.994251       0.994819       0.997566       0.870146     
  0.999854       0.999821       0.982289       0.968880       0.943391       0.938442       0.999823       0.999877       0.999855       0.999830     
  0.970850       0.992675       0.993862       0.994417       0.997521       0.870830       0.999833       0.999799       0.981011       0.967117     
  0.940026       0.934325       0.999846       0.999892       0.999871       0.999854       0.975300       0.993716       0.994407       0.995182     
  0.998146       0.888673       0.999868       0.999884       0.985804       0.973715       0.951445       0.946349       0.999804       0.999863     
  0.999838       0.999809       0.968432       0.992055       0.993557       0.993992       0.997509       0.872090       0.999808       0.999778     
  0.979729       0.965284       0.936465       0.929833       0.999893       0.999924       0.999909       0.999899       0.980437       0.995268     
  0.995245       0.996251       0.998857       0.914867       0.999911       0.999937       0.990094       0.980674       0.962931       0.958265     
  0.999779       0.999846       0.999818       0.999790       0.968460       0.991722       0.993315       0.993809       0.997149       0.859820     
  0.999804       0.999792       0.979885       0.964372       0.935947       0.929782     
 
  0.999757       0.999826       0.999788       0.999750       0.965075       0.990420       0.993030       0.993452       0.996643       0.832237     
  0.999751       0.999767       0.977407       0.959738       0.927842       0.920787       0.999735       0.999809       0.999768       0.999725     
  0.962486       0.989763       0.992407       0.992939       0.996684       0.836989       0.999719       0.999746       0.976204       0.958122     
  0.924490       0.916160       0.999769       0.999832       0.999794       0.999760       0.967938       0.991146       0.993051       0.993867     
  0.997556       0.860129       0.999766       0.999856       0.982288       0.966556       0.938809       0.931500       0.999706       0.999788     
  0.999741       0.999693       0.959572       0.988984       0.991936       0.992407       0.996706       0.839997       0.999680       0.999723     
  0.974848       0.956159       0.920592       0.910865       0.999838       0.999882       0.999855       0.999832       0.974296       0.993172     
  0.994095       0.995161       0.998483       0.892948       0.999838       0.999920       0.987534       0.975193       0.952844       0.946308     
  0.999670       0.999761       0.999709       0.999658       0.959321       0.988510       0.991657       0.992181       0.996237       0.824073     
  0.999660       0.999740       0.974826       0.954764       0.919525       0.910352     
 
  0.999644       0.999735       0.999669       0.999602       0.955114       0.986754       0.991527       0.991792       0.995604       0.791267     
  0.999593       0.999708       0.971872       0.949371       0.910390       0.900033       0.999612       0.999710       0.999637       0.999564     
  0.951964       0.985927       0.990582       0.991138       0.995748       0.800271       0.999545       0.999687       0.970745       0.947915     
  0.907052       0.894745       0.999661       0.999745       0.999679       0.999614       0.958446       0.987689       0.991314       0.992234     
  0.996846       0.827154       0.999609       0.999821       0.978051       0.958021       0.923893       0.913279       0.999570       0.999677     
  0.999595       0.999513       0.948346       0.984904       0.989865       0.990458       0.995794       0.804686       0.999486       0.999662     
  0.969203       0.945678       0.902592       0.888253       0.999761       0.999820       0.999772       0.999728       0.966432       0.990363     
  0.992620       0.993819       0.998029       0.867205       0.999727       0.999898       0.984463       0.968637       0.940893       0.931685     
  0.999516       0.999637       0.999545       0.999453       0.947564       0.984173       0.989553       0.990147       0.995175       0.784331     
  0.999439       0.999678       0.968853       0.943561       0.900619       0.886875     
 
  0.999490       0.999605       0.999497       0.999380       0.942653       0.981955       0.989716       0.989750       0.994511       0.750492     
  0.999368       0.999644       0.965875       0.938133       0.891659       0.876333       0.999443       0.999567       0.999448       0.999321     
  0.938726       0.980852       0.988341       0.988910       0.994703       0.761119       0.999298       0.999621       0.964573       0.936457     
  0.887809       0.869780       0.999511       0.999619       0.999511       0.999392       0.946283       0.983052       0.989126       0.990182     
  0.995995       0.789743       0.999384       0.999777       0.972975       0.947982       0.906634       0.891224       0.999382       0.999517     
  0.999385       0.999243       0.934146       0.979457       0.987268       0.988024       0.994723       0.765006       0.999209       0.999589     
  0.962605       0.933603       0.882328       0.861502       0.999655       0.999731       0.999653       0.999571       0.956467       0.986640     
  0.990757       0.992154       0.997474       0.837133       0.999567       0.999871       0.980811       0.960916       0.927066       0.914119     
  0.999306       0.999457       0.999309       0.999144       0.932582       0.978340       0.986935       0.987585       0.993938       0.740818     
  0.999124       0.999604       0.961885       0.930694       0.879353       0.859065     
 
  0.999289       0.999428       0.999262       0.999061       0.927404       0.975870       0.987549       0.987257       0.993441       0.713151     
  0.999062       0.999578       0.959652       0.926425       0.872349       0.850007       0.999223       0.999371       0.999190       0.998973     
  0.922405       0.974340       0.985652       0.986168       0.993561       0.720898       0.998962       0.999545       0.957679       0.923791     
  0.866978       0.841117       0.999312       0.999443       0.999278       0.999073       0.931101       0.977045       0.986439       0.987627     
  0.995000       0.749030       0.999078       0.999720       0.967005       0.936425       0.887184       0.865059       0.999136       0.999297     
  0.999096       0.998855       0.916623       0.972435       0.984091       0.985012       0.993495       0.722286       0.998833       0.999502     
  0.955041       0.919970       0.860064       0.830531       0.999513       0.999607       0.999487       0.999343       0.944043       0.981835     
  0.988458       0.990092       0.996796       0.802438       0.999350       0.999834       0.976420       0.951842       0.911163       0.893048     
  0.999029       0.999210       0.998985       0.998699       0.914065       0.970807       0.983768       0.984405       0.992523       0.694613     
  0.998695       0.999514       0.953921       0.916205       0.856028       0.826907     
 
  0.999035       0.999189       0.998950       0.998613       0.908922       0.968278       0.985026       0.984253       0.992427       0.680683     
  0.998675       0.999508       0.953296       0.914359       0.852704       0.820922       0.998942       0.999106       0.998845       0.998483     
  0.902509       0.966151       0.982479       0.982837       0.992371       0.682317       0.998537       0.999458       0.950131       0.910030     
  0.844803       0.808501       0.999058       0.999206       0.998968       0.998623       0.912435       0.969430       0.983163       0.984489     
  0.993879       0.706868       0.998691       0.999649       0.960138       0.923368       0.865718       0.834464       0.998822       0.999000     
  0.998712       0.998309       0.895326       0.963592       0.980228       0.981327       0.992133       0.678538       0.998358       0.999398     
  0.946554       0.904827       0.836018       0.795178       0.999330       0.999438       0.999264       0.999022       0.928640       0.975718     
  0.985648       0.987556       0.995989       0.763991       0.999075       0.999786       0.971126       0.941204       0.892939       0.867677     
  0.998678       0.998876       0.998555       0.998074       0.891539       0.961321       0.979982       0.980522       0.990964       0.648035     
  0.998152       0.999407       0.945024       0.900184       0.830913       0.790269     
 
  0.998721       0.998875       0.998548       0.997996       0.887108       0.959069       0.982139       0.980698       0.991487       0.654060     
  0.998228       0.999432       0.946961       0.902119       0.833149       0.789442       0.998593       0.998756       0.998400       0.997812     
  0.878868       0.956149       0.978839       0.978868       0.991160       0.646760       0.998046       0.999357       0.941991       0.895260     
  0.821556       0.772023       0.998741       0.998891       0.998565       0.998007       0.890070       0.960059       0.979218       0.980699     
  0.992646       0.664560       0.998244       0.999561       0.952373       0.908842       0.842474       0.799405       0.998432       0.998608     
  0.998214       0.997562       0.870011       0.952770       0.975592       0.976889       0.990670       0.635771       0.997809       0.999276     
  0.937123       0.888174       0.810285       0.755305       0.999101       0.999214       0.998973       0.998581       0.910031       0.968151     
  0.982280       0.984489       0.995063       0.723352       0.998758       0.999724       0.964919       0.929042       0.872651       0.837900     
  0.998242       0.998435       0.997999       0.997217       0.864853       0.949744       0.975517       0.975874       0.989320       0.603837     
  0.997525       0.999280       0.935349       0.882865       0.804469       0.749467     
 
  0.998343       0.998474       0.998044       0.997169       0.862145       0.948170       0.978809       0.976619       0.990586       0.632313     
  0.997753       0.999348       0.940798       0.889864       0.814130       0.756517       0.998171       0.998305       0.997837       0.996916     
  0.851576       0.944222       0.974728       0.974291       0.989915       0.614072       0.997524       0.999242       0.933312       0.879545     
  0.797509       0.732270       0.998355       0.998483       0.998054       0.997185       0.864051       0.948824       0.974562       0.976277     
  0.991347       0.624780       0.997769       0.999457       0.943882       0.893159       0.818063       0.760556       0.997959       0.998100     
  0.997586       0.996568       0.840659       0.939831       0.970209       0.971727       0.989169       0.597402       0.997224       0.999135     
  0.926842       0.870244       0.783258       0.711324       0.998820       0.998922       0.998603       0.997994       0.888195       0.959024     
  0.978333       0.980898       0.994039       0.682655       0.998420       0.999648       0.957874       0.915551       0.850792       0.804129     
  0.997716       0.997866       0.997299       0.996073       0.834145       0.935968       0.970346       0.970501       0.987625       0.563728     
  0.996859       0.999134       0.925074       0.864516       0.777197       0.705331     
 
  0.997889       0.997959       0.997412       0.996058       0.833503       0.935194       0.974853       0.971972       0.989677       0.614347     
  0.997292       0.999253       0.934748       0.877369       0.795377       0.722017       0.997662       0.997724       0.997129       0.995722     
  0.820068       0.929940       0.969994       0.969049       0.988637       0.584919       0.997016       0.999111       0.924048       0.862710     
  0.772469       0.688990       0.997889       0.997955       0.997408       0.996091       0.833777       0.935312       0.969044       0.971146     
  0.990026       0.590014       0.997308       0.999337       0.934697       0.876305       0.792495       0.717628       0.997389       0.997445     
  0.996793       0.995247       0.806677       0.924305       0.963967       0.965766       0.987654       0.564492       0.996654       0.998973     
  0.915646       0.850860       0.754756       0.662971       0.998480       0.998545       0.998134       0.997213       0.862582       0.947996     
  0.973706       0.976719       0.992976       0.645592       0.998093       0.999560       0.950080       0.900850       0.827588       0.766154     
  0.997083       0.997132       0.996417       0.994550       0.798705       0.919473       0.964265       0.964318       0.985884       0.528231     
  0.996210       0.998966       0.914009       0.844779       0.748583       0.657198     
 
  0.997353       0.997311       0.996635       0.994591       0.801241       0.919993       0.970131       0.966796       0.988762       0.601618     
  0.996880       0.999144       0.928892       0.864747       0.777016       0.686434       0.997060       0.996987       0.996251       0.994160     
  0.784523       0.913139       0.964497       0.963176       0.987364       0.561523       0.996560       0.998964       0.914406       0.845029     
  0.746897       0.643157       0.997335       0.997283       0.996604       0.994663       0.799330       0.919329       0.962487       0.965310     
  0.988683       0.560239       0.996893       0.999199       0.924782       0.858228       0.765798       0.671072       0.996713       0.996611     
  0.995809       0.993525       0.768341       0.906014       0.956806       0.959072       0.986111       0.536564       0.996140       0.998791     
  0.903552       0.830004       0.724900       0.611159       0.998075       0.998063       0.997549       0.996193       0.833229       0.934909     
  0.968241       0.971944       0.991908       0.614090       0.997798       0.999459       0.941648       0.885125       0.803426       0.724543     
  0.996333       0.996198       0.995321       0.992562       0.758707       0.900041       0.957110       0.957366       0.984112       0.498167     
  0.995627       0.998774       0.902151       0.823657       0.718716       0.605736     
 
  0.996726       0.996499       0.995685       0.992686       0.765120       0.902264       0.964259       0.961017       0.987812       0.594190     
  0.996512       0.999020       0.923154       0.851842       0.758793       0.649791       0.996354       0.996060       0.995174       0.992143     
  0.745004       0.893589       0.958133       0.956616       0.986078       0.543936       0.996150       0.998800       0.904296       0.826323     
  0.720564       0.595031       0.996683       0.996436       0.995614       0.992824       0.760777       0.900642       0.955118       0.958784     
  0.987299       0.535024       0.996520       0.999042       0.914021       0.838730       0.737769       0.621195       0.995919       0.995562     
  0.994598       0.991307       0.725820       0.884704       0.949236       0.951715       0.984511       0.513061       0.995675       0.998584     
  0.890487       0.807523       0.693606       0.556653       0.997596       0.997455       0.996827       0.994880       0.800146       0.919563     
  0.962211       0.966602       0.990822       0.587459       0.997534       0.999344       0.932504       0.868228       0.778181       0.679528     
  0.995453       0.995021       0.993973       0.990001       0.714399       0.877451       0.948917       0.949615       0.982298       0.473574     
  0.995104       0.998555       0.889474       0.801068       0.687582       0.551681     
 
  0.995992       0.995478       0.994520       0.990253       0.724486       0.881570       0.957616       0.954545       0.986753       0.589204     
  0.996168       0.998872       0.916561       0.837116       0.738425       0.609001       0.995529       0.994899       0.993857       0.989560     
  0.701428       0.871027       0.950486       0.949220       0.984678       0.528187       0.995764       0.998611       0.893292       0.805906     
  0.692627       0.544439       0.995920       0.995373       0.994401       0.990472       0.718146       0.879036       0.946402       0.951401     
  0.985821       0.512367       0.996167       0.998861       0.902253       0.817484       0.708097       0.568431       0.994992       0.994248     
  0.993117       0.988472       0.679347       0.860206       0.940281       0.943436       0.982782       0.491505       0.995233       0.998347     
  0.876310       0.783087       0.660633       0.500214       0.997035       0.996693       0.995942       0.993200       0.763274       0.901761     
  0.955203       0.960556       0.989678       0.563786       0.997283       0.999213       0.922526       0.849899       0.751595       0.631389     
  0.994425       0.993546       0.992325       0.986726       0.665965       0.851499       0.938503       0.940780       0.980395       0.453101     
  0.994608       0.998306       0.875879       0.776788       0.655057       0.495846     
 
  0.995147       0.994214       0.993114       0.987240       0.680059       0.858210       0.948203       0.947010       0.985553       0.584810     
  0.995816       0.998698       0.907963       0.819144       0.713790       0.561658       0.994586       0.993477       0.992283       0.986341     
  0.654827       0.845831       0.941412       0.941038       0.983128       0.512530       0.995369       0.998395       0.881214       0.783570     
  0.662908       0.492238       0.995047       0.994069       0.992951       0.987543       0.672467       0.854876       0.936640       0.943283     
  0.984214       0.490530       0.995806       0.998655       0.889404       0.794402       0.676796       0.514023       0.993934       0.992640     
  0.991349       0.984940       0.630143       0.832989       0.930194       0.934362       0.980899       0.470800       0.994781       0.998079     
  0.860925       0.756661       0.626058       0.443236       0.996394       0.995759       0.994886       0.991105       0.723419       0.881784     
  0.947586       0.953934       0.988480       0.542978       0.997027       0.999065       0.911823       0.830278       0.723964       0.581398     
  0.993252       0.991740       0.990357       0.982646       0.614771       0.822688       0.925285       0.930815       0.978369       0.435468     
  0.994102       0.998024       0.861347       0.750814       0.621312       0.439766     
 
  0.994177       0.992648       0.991419       0.983539       0.631793       0.831962       0.934826       0.938067       0.984192       0.580254     
  0.995436       0.998492       0.896473       0.796905       0.683647       0.506863       0.993519       0.991739       0.990412       0.982338     
  0.605633       0.818056       0.929251       0.931725       0.981424       0.497382       0.994944       0.998149       0.867920       0.759118     
  0.631266       0.439012       0.994058       0.992476       0.991226       0.983907       0.624074       0.828167       0.925380       0.934316     
  0.982470       0.469441       0.995418       0.998421       0.875358       0.769253       0.643684       0.458496       0.992737       0.990676     
  0.989247       0.980557       0.578652       0.803061       0.918663       0.924411       0.978873       0.451965       0.994293       0.997778     
  0.844362       0.728200       0.590040       0.386683       0.995667       0.994618       0.993629       0.988501       0.680774       0.859626     
  0.938875       0.946627       0.987246       0.526236       0.996752       0.998901       0.900433       0.809316       0.695270       0.530006     
  0.991924       0.989534       0.988015       0.977579       0.561391       0.791093       0.906923       0.919197       0.976193       0.420161     
  0.993557       0.997705       0.845691       0.722836       0.586119       0.384058     
 
  0.993087       0.990755       0.989422       0.979105       0.581209       0.803302       0.914749       0.927132       0.982672       0.575488     
  0.995020       0.998253       0.882004       0.770579       0.648605       0.447253       0.992330       0.989660       0.988230       0.977484     
  0.555299       0.788274       0.909161       0.920381       0.979587       0.483604       0.994485       0.997876       0.853502       0.732808     
  0.598175       0.386361       0.992961       0.990569       0.989215       0.979499       0.574447       0.799490       0.912679       0.924655     
  0.980611       0.449535       0.994998       0.998163       0.860260       0.742378       0.609358       0.403758       0.991411       0.988330     
  0.986798       0.975245       0.526556       0.771101       0.905759       0.913751       0.976699       0.433807       0.993766       0.997445     
  0.826710       0.697955       0.553088       0.332396       0.994860       0.993255       0.992167       0.985337       0.636492       0.835732     
  0.927406       0.938409       0.985974       0.513089       0.996455       0.998722       0.888398       0.787175       0.665781       0.478582     
  0.990442       0.986895       0.985286       0.971435       0.507608       0.757450       0.876041       0.904415       0.973839       0.406289     
  0.992967       0.997351       0.828981       0.693107       0.549996       0.330585     
 
  0.991856       0.988471       0.987071       0.973802       0.528837       0.772125       0.876664       0.911482       0.980954       0.570676     
  0.994561       0.997972       0.864126       0.739791       0.608613       0.384363       0.990992       0.987163       0.985674       0.971646     
  0.503702       0.756134       0.866746       0.903512       0.977580       0.472462       0.993981       0.997564       0.836824       0.703298     
  0.562014       0.332748       0.991747       0.988290       0.986871       0.974161       0.523914       0.768757       0.894613       0.913462     
  0.978665       0.432902       0.994542       0.997879       0.844164       0.713812       0.574028       0.350593       0.989943       0.985527     
  0.983945       0.968815       0.474320       0.737074       0.885770       0.901128       0.974378       0.417386       0.993195       0.997081     
  0.807995       0.665933       0.515434       0.281178       0.993966       0.991625       0.990464       0.981498       0.590710       0.809969     
  0.910413       0.928734       0.984629       0.502032       0.996133       0.998525       0.875598       0.763584       0.635281       0.427560     
  0.988791       0.983741       0.982103       0.963998       0.453874       0.721695       0.831024       0.885778       0.971288       0.394092     
  0.992326       0.996957       0.811200       0.661539       0.513057       0.280089     
 
  0.990476       0.985775       0.984359       0.967595       0.476541       0.739061       0.810516       0.888124       0.978991       0.565998     
  0.994055       0.997642       0.843071       0.705156       0.565090       0.321972       0.989477       0.984215       0.982723       0.964830     
  0.452118       0.722017       0.784491       0.875764       0.975273       0.462647       0.993423       0.997193       0.816719       0.669626     
  0.521893       0.278551       0.990416       0.985617       0.984186       0.967852       0.473883       0.736510       0.862219       0.898840     
  0.976628       0.419526       0.994054       0.997571       0.827236       0.683914       0.538302       0.300575       0.988336       0.982245     
  0.980679       0.961218       0.423411       0.701608       0.849534       0.884555       0.971914       0.403303       0.992583       0.996684     
  0.788483       0.632660       0.477861       0.234505       0.992987       0.989714       0.988516       0.976949       0.544561       0.782736     
  0.882961       0.916526       0.983176       0.491008       0.995788       0.998311       0.862055       0.738655       0.604042       0.378310     
  0.986964       0.980040       0.978452       0.955237       0.401640       0.684444       0.767957       0.862004       0.968517       0.383786     
  0.991635       0.996519       0.792088       0.628083       0.475386       0.233279     
 
  0.988849       0.982594       0.981225       0.960342       0.424786       0.703987       0.700064       0.849183       0.976411       0.561415     
  0.993460       0.997207       0.818211       0.666158       0.518174       0.261495       0.987635       0.980734       0.979310       0.956871     
  0.401165       0.685855       0.645137       0.826945       0.972125       0.453884       0.992749       0.996677       0.792458       0.631277     
  0.478126       0.225445       0.988942       0.982476       0.981102       0.960405       0.424586       0.702672       0.808345       0.878315     
  0.974414       0.409071       0.993519       0.997226       0.808964       0.652082       0.501592       0.253388       0.986551       0.978396     
  0.976932       0.952245       0.374131       0.664707       0.783937       0.859866       0.969194       0.392313       0.991911       0.996238     
  0.767929       0.597891       0.440252       0.192263       0.991912       0.987471       0.986283       0.971555       0.498292       0.753996     
  0.845386       0.901435       0.981601       0.480749       0.995413       0.998074       0.847692       0.712241       0.571982       0.331035     
  0.984915       0.975679       0.974237       0.944980       0.351033       0.645504       0.684641       0.830763       0.965403       0.375847     
  0.990868       0.996011       0.770158       0.591168       0.435391       0.188812     
 
  0.986948       0.978926       0.977676       0.952066       0.375402       0.667783       0.563134       0.795777       0.973076       0.556967     
  0.992758       0.996634       0.789890       0.623667       0.469724       0.206443       0.985451       0.976721       0.975444       0.947797     
  0.352720       0.648601       0.496850       0.765733       0.968146       0.446322       0.991940       0.995979       0.764511       0.589290     
  0.432669       0.177045       0.987334       0.978859       0.977618       0.951875       0.377272       0.667894       0.737884       0.852462     
  0.971996       0.401022       0.992936       0.996842       0.788718       0.617951       0.463574       0.209328       0.984563       0.973969     
  0.972701       0.941974       0.327621       0.627074       0.675384       0.821896       0.966039       0.383813       0.991171       0.995729     
  0.745289       0.560896       0.401918       0.154045       0.990757       0.984893       0.983770       0.965323       0.453126       0.724354     
  0.803032       0.884808       0.979949       0.472339       0.995012       0.997819       0.832601       0.684677       0.539540       0.286780     
  0.982581       0.970650       0.969461       0.933317       0.303567       0.605732       0.573498       0.787213       0.961705       0.369739     
  0.989996       0.995386       0.744708       0.550665       0.393439       0.147878     
 
  0.984570       0.974673       0.973629       0.942582       0.328476       0.630254       0.406881       0.722813       0.968476       0.552458     
  0.991838       0.995740       0.757139       0.577010       0.419835       0.157303       0.982787       0.972070       0.971035       0.937406     
  0.306884       0.610103       0.353356       0.692568       0.963084       0.439154       0.990901       0.994952       0.732292       0.543313     
  0.385790       0.134035       0.985538       0.974666       0.973648       0.942099       0.331830       0.631904       0.647385       0.818121     
  0.969200       0.394583       0.992283       0.996387       0.765289       0.580308       0.423258       0.167854       0.982133       0.968836     
  0.967874       0.930248       0.283557       0.588238       0.507444       0.756388       0.961662       0.376500       0.990263       0.994995     
  0.717928       0.519272       0.360993       0.118527       0.989499       0.981908       0.980916       0.958118       0.408812       0.693540     
  0.754102       0.865646       0.978196       0.466365       0.994574       0.997536       0.815996       0.655031       0.505647       0.244436     
  0.979794       0.964823       0.964012       0.920005       0.259351       0.565042       0.430482       0.723991       0.956962       0.364595     
  0.988950       0.994534       0.714912       0.506075       0.349806       0.111235     
 
  0.981532       0.969854       0.969104       0.931973       0.285383       0.592275       0.261903       0.635937       0.962322       0.547855     
  0.990532       0.994265       0.720592       0.527614       0.370759       0.116211       0.979569       0.966806       0.966112       0.925797     
  0.265023       0.571362       0.231569       0.612881       0.956876       0.432452       0.989534       0.993437       0.696739       0.495026     
  0.339740       0.983330E-001  0.983520       0.969922       0.969222       0.931166       0.289713       0.595650       0.539146       0.773281     
  0.965868       0.389255       0.991538       0.995822       0.739125       0.540215       0.382384       0.131106       0.979027       0.963022     
  0.962475       0.917183       0.243352       0.549205       0.331398       0.669265       0.955641       0.370538       0.989023       0.993778     
  0.686026       0.474185       0.319484       0.879014E-001  0.988103       0.978526       0.977733       0.950027       0.366482       0.662169     
  0.670421       0.834878       0.976106       0.462053       0.994086       0.997201       0.797301       0.623092       0.470255       0.204464     
  0.976426       0.958233       0.957929       0.905188       0.219669       0.524554       0.288836       0.646415       0.950975       0.360307     
  0.987638       0.993305       0.681419       0.458962       0.306659       0.807350E-001
 
  0.977752       0.964420       0.964059       0.920173       0.246202       0.554031       0.145665       0.540754       0.954509       0.543023     
  0.988729       0.992027       0.680466       0.476166       0.323323       0.830745E-001  0.975769       0.960881       0.960634       0.912901     
  0.227203       0.532617       0.136536       0.529325       0.949464       0.426038       0.987787       0.991350       0.658166       0.445241     
  0.295409       0.697823E-001  0.981188       0.964578       0.964301       0.919004       0.251119       0.559316       0.415325       0.715316     
  0.961772       0.384587       0.990652       0.995073       0.710127       0.497927       0.341661       0.995482E-001  0.975102       0.956468     
  0.956455       0.902700       0.207136       0.510213       0.185378       0.570212       0.947893       0.365164       0.987313       0.991845     
  0.649901       0.426604       0.278559       0.627565E-001  0.986508       0.974708       0.974190       0.941009       0.326360       0.630282     
  0.558900       0.790860       0.973483       0.458441       0.993526       0.996780       0.775821       0.588341       0.433181       0.167110     
  0.972473       0.950819       0.951160       0.888795       0.184499       0.484567       0.176945       0.564606       0.943914       0.356371     
  0.985997       0.991598       0.644743       0.410346       0.265004       0.564794E-001
 
  0.972989       0.958331       0.958455       0.907167       0.211049       0.515811       0.687036E-001  0.441160       0.944577       0.537763     
  0.986048       0.988462       0.636741       0.423491       0.278344       0.574342E-001  0.971105       0.954255       0.954565       0.898710     
  0.193491       0.494147       0.691243E-001  0.439968       0.940197       0.419779       0.985311       0.988165       0.616352       0.394665     
  0.253542       0.478596E-001  0.978462       0.958615       0.958869       0.905613       0.216285       0.523250       0.287386       0.644212     
  0.956700       0.380456       0.989576       0.994057       0.678463       0.454072       0.301984       0.734521E-001  0.970225       0.949138     
  0.949784       0.886806       0.175013       0.471653       0.878619E-001  0.467923       0.938296       0.359881       0.984879       0.988816     
  0.610083       0.377768       0.239347       0.431814E-001  0.984742       0.970438       0.970277       0.931052       0.288924       0.598194     
  0.449033       0.741858       0.970510       0.455552       0.992893       0.996273       0.751959       0.551414       0.395369       0.133503     
  0.967744       0.942549       0.943678       0.870847       0.153809       0.445462       0.941545E-001  0.477768       0.935345       0.352488     
  0.983828       0.989106       0.605043       0.361198       0.225742       0.380771E-001
 
  0.967013       0.951601       0.952302       0.893056       0.180083       0.478184       0.264507E-001  0.343947       0.932203       0.531963     
  0.982151       0.983086       0.590188       0.371152       0.236871       0.385894E-001  0.965580       0.946968       0.947939       0.883359     
  0.164014       0.456628       0.307096E-001  0.355067       0.929289       0.413681       0.982056       0.983820       0.572714       0.345081     
  0.215267       0.319506E-001  0.975165       0.952058       0.952949       0.891111       0.185445       0.487934       0.176012       0.562809     
  0.950282       0.376688       0.988132       0.992500       0.644390       0.409541       0.264364       0.528403E-001  0.964158       0.941060     
  0.942477       0.869654       0.147072       0.434086       0.348902E-001  0.368162       0.926488       0.354608       0.981371       0.984167     
  0.567213       0.329188       0.202929       0.287794E-001  0.982749       0.965737       0.966013       0.920236       0.254699       0.566358     
  0.342430       0.686022       0.966966       0.453043       0.992134       0.995603       0.725923       0.512978       0.357920       0.104454     
  0.962155       0.933473       0.935523       0.851539       0.127561       0.407859       0.439185E-001  0.391367       0.925201       0.348596     
  0.980975       0.985591       0.563300       0.313108       0.189932       0.249216E-001
 
  0.959638       0.944210       0.945572       0.877892       0.153045       0.441436       0.809615E-002  0.254357       0.917035       0.525441     
  0.976472       0.975121       0.541093       0.320174       0.199177       0.252808E-001  0.959089       0.939019       0.940752       0.866922     
  0.138494       0.420376       0.115707E-001  0.275977       0.916495       0.407609       0.977702       0.977870       0.527687       0.297494     
  0.180879       0.208650E-001  0.971349       0.944922       0.946553       0.875578       0.158453       0.453720       0.978977E-001  0.481644     
  0.942832       0.373161       0.986298       0.990365       0.608781       0.365519       0.229481       0.372067E-001  0.956712       0.932223     
  0.934518       0.851330       0.123033       0.397819       0.111059E-001  0.275784       0.912166       0.349303       0.976286       0.977184     
  0.521703       0.282004       0.169766       0.186555E-001  0.980470       0.960611       0.961404       0.908608       0.223788       0.535023     
  0.242596       0.622787       0.962629       0.450604       0.991208       0.994696       0.697786       0.473479       0.321524       0.800897E-001
  0.955623       0.923601       0.926700       0.830998       0.105356       0.372050       0.174878E-001  0.309992       0.913353       0.344552     
  0.977183       0.980687       0.520048       0.267156       0.157901       0.159194E-001
 
  0.950732       0.936146       0.938243       0.861749       0.129630       0.405878       0.223451E-002  0.178268       0.898874       0.517970     
  0.968367       0.963762       0.490071       0.271611       0.165408       0.162297E-001  0.951279       0.930404       0.932988       0.849486     
  0.116584       0.385598       0.373011E-002  0.203591       0.901073       0.401292       0.971626       0.969453       0.481247       0.252503     
  0.150353       0.133939E-001  0.966945       0.937230       0.939701       0.859121       0.135071       0.420876       0.493214E-001  0.402521     
  0.934166       0.369808       0.983929       0.987428       0.571865       0.322705       0.197623       0.257262E-001  0.947752       0.922632     
  0.925902       0.831938       0.102571       0.363205       0.295549E-002  0.196176       0.895133       0.343819       0.969085       0.967153     
  0.474390       0.237423       0.140207       0.118578E-001  0.977837       0.955077       0.956463       0.896236       0.196188       0.504435     
  0.157187       0.553432       0.957320       0.448203       0.990026       0.993409       0.667718       0.433476       0.286795       0.602710E-001
  0.948039       0.912974       0.917237       0.809396       0.867515E-001  0.338284       0.601307E-002  0.235999       0.899574       0.340264     
  0.972215       0.974042       0.475829       0.224254       0.129755       0.999312E-002
 
  0.940722       0.927454       0.930356       0.844744       0.109550       0.372015       0.641411E-003  0.120772       0.878565       0.509590     
  0.957857       0.949185       0.438916       0.226880       0.135767       0.102836E-001  0.941785       0.921099       0.924605       0.831150     
  0.978737E-001  0.352381       0.104276E-002  0.140600       0.882182       0.394374       0.962684       0.957032       0.433038       0.210461     
  0.123348       0.847427E-002  0.961893       0.929013       0.932413       0.841879       0.114975       0.389587       0.216667E-001  0.327368     
  0.924225       0.366553       0.980866       0.983468       0.534028       0.281746       0.168870       0.175264E-001  0.937337       0.912295     
  0.916624       0.811613       0.852881E-001  0.330496       0.671927E-003  0.132989       0.875444       0.337919       0.959101       0.953261     
  0.426207       0.196380       0.114259       0.743906E-002  0.974835       0.949157       0.951212       0.883203       0.171789       0.474845     
  0.929108E-001  0.483007       0.951131       0.445797       0.988528       0.991647       0.636321       0.393817       0.254305       0.446548E-001
  0.939278       0.901616       0.907142       0.786927       0.712594E-001  0.306663       0.182953E-002  0.171524       0.883597       0.335591     
  0.965496       0.964902       0.430972       0.184975       0.105282       0.619654E-002
 
  0.928908       0.918095       0.921843       0.827022       0.923872E-001  0.339775       0.110359E-003  0.762038E-001  0.854548       0.499749     
  0.943214       0.929153       0.386992       0.186022       0.109832       0.642866E-002  0.930478       0.911133       0.915613       0.812064     
  0.820524E-001  0.321092       0.220212E-003  0.907805E-001  0.859755       0.386675       0.950081       0.939683       0.384201       0.172348     
  0.998915E-001  0.532165E-002  0.956102       0.920347       0.924751       0.824008       0.979106E-001  0.360219       0.836597E-002  0.258107     
  0.912826       0.363218       0.976867       0.978133       0.495858       0.243553       0.143458       0.118905E-001  0.925625       0.901300     
  0.906755       0.790527       0.708903E-001  0.300205       0.158335E-003  0.871215E-001  0.853553       0.331540       0.946142       0.935390     
  0.378857       0.159982       0.920934E-001  0.466267E-002  0.971502       0.942913       0.945702       0.869621       0.150504       0.446668     
  0.513114E-001  0.415797       0.944275       0.443385       0.986678       0.989364       0.604632       0.355697       0.224738       0.328602E-001
  0.929397       0.889655       0.896519       0.763838       0.585235E-001  0.277585       0.531684E-003  0.120332       0.865759       0.330510     
  0.956988       0.953284       0.386985       0.150356       0.845991E-001  0.384696E-002
 
  0.914117       0.907830       0.912427       0.808479       0.776944E-001  0.308822       0.110359E-003  0.430562E-001  0.823518       0.486939     
  0.920030       0.897893       0.331783       0.148100       0.866400E-001  0.392743E-002  0.917391       0.900504       0.905989       0.792372     
  0.687041E-001  0.291736       0.134710E-003  0.551281E-001  0.833440       0.377937       0.932595       0.915869       0.335177       0.138383     
  0.796332E-001  0.331262E-002  0.949511       0.911277       0.916746       0.805693       0.834564E-001  0.332753       0.286268E-002  0.197191     
  0.899895       0.359718       0.971663       0.971064       0.457658       0.208490       0.121160       0.805385E-002  0.912707       0.889688     
  0.896317       0.768905       0.589091E-001  0.272202       0.158335E-003  0.550357E-001  0.829158       0.324554       0.929457       0.912584     
  0.332529       0.128179       0.732676E-001  0.291197E-002  0.967883       0.936393       0.939973       0.855621       0.132028       0.420019     
  0.264812E-001  0.354298       0.936954       0.441048       0.984516       0.986620       0.573342       0.319788       0.198206       0.241172E-001
  0.918413       0.877151       0.885406       0.740375       0.480660E-001  0.250907       0.250515E-003  0.810510E-001  0.845711       0.324887     
  0.946036       0.938306       0.343908       0.120316       0.672279E-001  0.239057E-002
 
  0.895797       0.896349       0.901764       0.788997       0.651633E-001  0.279214       0.214255E-004  0.220321E-001  0.783539       0.469488     
  0.882957       0.848835       0.273027       0.113179       0.657528E-001  0.231166E-002  0.902297       0.889163       0.895654       0.772207     
  0.574983E-001  0.264383       0.322014E-004  0.317066E-001  0.802358       0.367522       0.907868       0.882680       0.286047       0.108561     
  0.621909E-001  0.203449E-002  0.942401       0.901930       0.908507       0.787177       0.713263E-001  0.307490       0.103273E-002  0.148490     
  0.886131       0.356062       0.965387       0.962459       0.420899       0.177398       0.102050       0.549882E-002  0.898589       0.877532     
  0.885355       0.747006       0.490007E-001  0.246574       0.358407E-004  0.335910E-001  0.802106       0.316712       0.908165       0.883827     
  0.287858       0.101027       0.574922E-001  0.181249E-002  0.964127       0.929685       0.934105       0.841385       0.116137       0.395178     
  0.140485E-001  0.302066       0.929552       0.438784       0.982150       0.983547       0.543363       0.286844       0.174848       0.177810E-001
  0.906299       0.864215       0.873883       0.716851       0.395274E-001  0.226665       0.860445E-004  0.525242E-001  0.823296       0.318566     
  0.931894       0.919045       0.302324       0.948969E-001  0.528459E-001  0.148986E-002
 
  0.874429       0.883509       0.889691       0.768591       0.545833E-001  0.251364       0.214255E-004  0.102019E-001  0.735330       0.446807     
  0.829962       0.780413       0.214621       0.825967E-001  0.476832E-001  0.130332E-002  0.885648       0.877219       0.884694       0.751836     
  0.481717E-001  0.239288       0.322014E-004  0.173311E-001  0.767570       0.355514       0.875950       0.840562       0.239119       0.833646E-001
  0.476241E-001  0.123517E-002  0.934982       0.892443       0.900152       0.768728       0.612213E-001  0.284580       0.402262E-003  0.111274     
  0.871999       0.352325       0.958234       0.952633       0.386580       0.150562       0.859770E-001  0.380763E-002  0.883834       0.865048     
  0.874064       0.725199       0.408782E-001  0.223512       0.358407E-004  0.203050E-001  0.773762       0.308291       0.883239       0.850550     
  0.246674       0.786751E-001  0.446578E-001  0.113106E-002  0.960299       0.922884       0.928172       0.827119       0.102568       0.372288     
  0.750309E-002  0.257795       0.922118       0.436581       0.979577       0.980174       0.515066       0.257154       0.154528       0.132320E-001
  0.893528       0.851074       0.862149       0.693649       0.326099E-001  0.204983       0.860445E-004  0.333936E-001  0.799686       0.311774     
  0.915260       0.896487       0.263786       0.741098E-001  0.412439E-001  0.936365E-003
 
  0.851087       0.869531       0.876422       0.747625       0.457487E-001  0.225698       0.214255E-004  0.450566E-002  0.681736       0.419841     
  0.764122       0.697759       0.161608       0.576623E-001  0.330794E-001  0.705680E-003  0.867729       0.864815       0.873231       0.731539     
  0.404626E-001  0.216503       0.322014E-004  0.921672E-002  0.729651       0.341958       0.837146       0.790258       0.195875       0.627567E-001
  0.357929E-001  0.742132E-003  0.927496       0.882970       0.891816       0.750625       0.528509E-001  0.264060       0.201656E-003  0.838106E-001
  0.857949       0.348544       0.950408       0.941869       0.355106       0.127771       0.725863E-001  0.268176E-002  0.868747       0.852453     
  0.862637       0.703835       0.342592E-001  0.202966       0.358407E-004  0.124182E-001  0.744645       0.299448       0.855492       0.813980     
  0.209756       0.607847E-001  0.344597E-001  0.709883E-003  0.956533       0.916093       0.922264       0.813034       0.910611E-001  0.351463     
  0.407366E-002  0.220979       0.914918       0.434458       0.976864       0.976588       0.488754       0.230733       0.136989       0.997853E-002
  0.880420       0.837960       0.850411       0.671136       0.270354E-001  0.185787       0.860445E-004  0.213608E-001  0.775487       0.304705     
  0.896865       0.871719       0.229136       0.575991E-001  0.320950E-001  0.595172E-003
 
  0.827186       0.854817       0.862370       0.726504       0.384025E-001  0.202427       0.133647E-018  0.193863E-002  0.626664       0.390681     
  0.692266       0.610628       0.117888       0.388832E-001  0.221681E-001  0.369897E-003  0.848546       0.851806       0.861111       0.711225     
  0.340586E-001  0.195737       0.137000E-007  0.478309E-002  0.688126       0.326393       0.789780       0.730247       0.156262       0.459962E-001
  0.262010E-001  0.435692E-003  0.919943       0.873544       0.883522       0.732935       0.458766E-001  0.245632       0.933911E-004  0.631981E-001
  0.843812       0.344659       0.941884       0.930173       0.326165       0.108444       0.614054E-001  0.191779E-002  0.853231       0.839679     
  0.850993       0.682894       0.288285E-001  0.184547       0.236075E-004  0.760433E-002  0.714053       0.289864       0.823585       0.772700     
  0.176343       0.464149E-001  0.263036E-001  0.444222E-003  0.952851       0.909356       0.916420       0.799207       0.812597E-001  0.332509     
  0.225718E-002  0.190255       0.907987       0.432429       0.974228       0.973057       0.464433       0.207324       0.121859       0.763085E-002
  0.866850       0.824800       0.838581       0.649281       0.225109E-001  0.168677       0.792914E-004  0.135572E-001  0.749844       0.297060     
  0.875020       0.842762       0.197358       0.443744E-001  0.247856E-001  0.378604E-003
 
  0.804432       0.840219       0.848388       0.706157       0.324612E-001  0.182166       0.192875E-021  0.825436E-003  0.574988       0.362273     
  0.623158       0.529982       0.854339E-001  0.260014E-001  0.147505E-001  0.194719E-003  0.829581       0.838793       0.848923       0.691610     
  0.288721E-001  0.177523       0.101009E-008  0.251403E-002  0.646987       0.310281       0.739525       0.668129       0.123415       0.333850E-001
  0.190054E-001  0.255989E-003  0.912627       0.864430       0.875502       0.716118       0.401572E-001  0.229453       0.384620E-004  0.484913E-001
  0.830274       0.340814       0.933128       0.918196       0.300463       0.925108E-001  0.522814E-001  0.140151E-002  0.838342       0.827257     
  0.839643       0.663043       0.244662E-001  0.168571       0.236075E-004  0.481155E-002  0.684745       0.280414       0.791331       0.731691     
  0.148373       0.355222E-001  0.201409E-001  0.282164E-003  0.949338       0.902840       0.910778       0.785974       0.730472E-001  0.315628     
  0.131214E-002  0.165843       0.901490       0.430476       0.971585       0.969522       0.442596       0.187126       0.109076       0.595628E-002
  0.853882       0.812127       0.827163       0.628737       0.189142E-001  0.153928       0.792914E-004  0.897044E-002  0.725524       0.289647     
  0.853166       0.814157       0.170549       0.343689E-001  0.192595E-001  0.245226E-003
 
  0.782696       0.825813       0.834536       0.686711       0.276530E-001  0.164525       0.192875E-021  0.315257E-003  0.526230       0.334611     
  0.556862       0.455594       0.613607E-001  0.172168E-001  0.973045E-002  0.102885E-003  0.811106       0.825930       0.836813       0.672895     
  0.246789E-001  0.161631       0.101009E-008  0.129019E-002  0.606796       0.293900       0.687732       0.605885       0.968204E-001  0.240920E-001
  0.137155E-001  0.151353E-003  0.905557       0.855736       0.867847       0.700350       0.354686E-001  0.215309       0.122483E-004  0.376585E-001
  0.817237       0.337039       0.924126       0.905921       0.277593       0.794087E-001  0.448401E-001  0.104609E-002  0.823984       0.815256     
  0.828633       0.644410       0.209572E-001  0.154711       0.236075E-004  0.306411E-002  0.656325       0.271003       0.758412       0.690695     
  0.124935       0.272826E-001  0.154883E-001  0.181905E-003  0.946050       0.896637       0.905416       0.773478       0.661863E-001  0.300741     
  0.771724E-003  0.146318       0.895501       0.428661       0.968976       0.966026       0.423299       0.169933       0.983916E-001  0.475559E-002
  0.841636       0.800073       0.816279       0.609675       0.160541E-001  0.141256       0.792914E-004  0.608253E-002  0.702667       0.282545     
  0.831773       0.786666       0.148289       0.268839E-001  0.151236E-001  0.162205E-003
 
  0.760605       0.811050       0.820234       0.667740       0.236943E-001  0.148711       0.192875E-021  0.999306E-004  0.476719       0.305657     
  0.488351       0.381884       0.425302E-001  0.109949E-001  0.619452E-002  0.529301E-004  0.792911       0.813267       0.824819       0.655152     
  0.212734E-001  0.147683       0.543092E-010  0.626010E-003  0.566909       0.277161       0.634306       0.543288       0.748893E-001  0.171870E-001
  0.979113E-002  0.891730E-004  0.898758       0.847526       0.860611       0.685719       0.316172E-001  0.202972       0.512173E-005  0.296992E-001
  0.804729       0.333361       0.914975       0.893515       0.257362       0.686690E-001  0.387769E-001  0.797218E-003  0.809686       0.803654     
  0.817927       0.627003       0.181162E-001  0.142563       0.477519E-005  0.190032E-002  0.627440       0.261262       0.723175       0.647471     
  0.104359       0.208776E-001  0.118753E-001  0.117663E-003  0.943122       0.890809       0.900392       0.761808       0.604596E-001  0.287738     
  0.512774E-003  0.131305       0.890400       0.427115       0.966820       0.963157       0.406861       0.155544       0.895679E-001  0.388770E-002
  0.829546       0.788635       0.805904       0.592092       0.137661E-001  0.130260       0.250716E-004  0.406208E-002  0.679644       0.275331     
  0.808842       0.757421       0.128602       0.210929E-001  0.119205E-001  0.108356E-003
 
  0.741270       0.797616       0.807214       0.650718       0.205964E-001  0.135659       0.192875E-021  0.274561E-004  0.435061       0.280895     
  0.431818       0.323694       0.302804E-001  0.723442E-002  0.406926E-002  0.287719E-004  0.776004       0.801323       0.813457       0.638909     
  0.185712E-001  0.135860       0.318312E-012  0.300672E-003  0.530094       0.261251       0.583778       0.485775       0.581441E-001  0.123522E-001
  0.704580E-002  0.538603E-004  0.892496       0.840016       0.853984       0.672539       0.285109E-001  0.192488       0.246843E-005  0.239212E-001
  0.793225       0.329903       0.906116       0.881550       0.239986       0.600645E-001  0.339369E-001  0.623501E-003  0.796376       0.792875     
  0.807938       0.611262       0.158655E-001  0.132277       0.534731E-006  0.118877E-002  0.600410       0.251931       0.688991       0.606330     
  0.876563E-001  0.161570E-001  0.921266E-002  0.780369E-004  0.940538       0.885492       0.895815       0.751229       0.557634E-001  0.276630     
  0.364398E-003  0.119723       0.886014       0.425770       0.964929       0.960650       0.392967       0.143671       0.823706E-001  0.325899E-002
  0.818475       0.778177       0.796391       0.576368       0.119727E-001  0.121037       0.914826E-005  0.280036E-002  0.658526       0.268593     
  0.786991       0.729901       0.112525       0.168197E-001  0.955152E-002  0.744830E-004
 
  0.724066       0.785370       0.795314       0.635543       0.181730E-001  0.124862       0.192875E-021  0.769020E-005  0.399055       0.259125     
  0.383606       0.276089       0.219766E-001  0.487533E-002  0.274009E-002  0.164133E-004  0.760857       0.790434       0.803064       0.624462     
  0.164558E-001  0.126059       0.950774E-014  0.149788E-003  0.497463       0.246804       0.538411       0.435570       0.457590E-001  0.904878E-002
  0.517004E-002  0.338647E-004  0.886895       0.833331       0.848081       0.660961       0.260372E-001  0.183752       0.129512E-005  0.197654E-001
  0.782957       0.326739       0.897880       0.870472       0.225391       0.532747E-001  0.301270E-001  0.501773E-003  0.784406       0.783164     
  0.798906       0.597399       0.141047E-001  0.123748       0.935604E-007  0.758109E-003  0.576050       0.243330       0.657345       0.568902     
  0.744508E-001  0.127363E-001  0.728216E-002  0.536258E-004  0.938315       0.880769       0.891755       0.741885       0.519642E-001  0.267322     
  0.274827E-003  0.110780       0.882311       0.424615       0.963322       0.958517       0.381399       0.134010       0.765692E-001  0.280090E-002
  0.808638       0.768881       0.787913       0.562646       0.105826E-001  0.113451       0.338523E-005  0.197874E-002  0.639727       0.262486     
  0.766880       0.704843       0.996336E-001  0.136950E-001  0.781484E-002  0.530819E-004
 
  0.709089       0.774501       0.784732       0.622323       0.162926E-001  0.116064       0.192875E-021  0.268370E-005  0.368693       0.240531     
  0.343658       0.238160       0.163946E-001  0.339865E-002  0.190973E-002  0.992202E-005  0.747618       0.780772       0.793818       0.611902     
  0.148129E-001  0.118053       0.899056E-015  0.819526E-004  0.469277       0.234117       0.499026       0.393177       0.367452E-001  0.680982E-002
  0.389801E-002  0.223608E-004  0.882026       0.827519       0.842946       0.650999       0.240845E-001  0.176586       0.750184E-006  0.167720E-001
  0.774054       0.323962       0.890505       0.860596       0.213373       0.479727E-001  0.271561E-001  0.415829E-003  0.773955       0.774641     
  0.790958       0.585455       0.127379E-001  0.116784       0.246594E-007  0.501914E-003  0.554761       0.235697       0.629198       0.536185     
  0.642322E-001  0.102816E-001  0.589554E-002  0.384505E-004  0.936435       0.876667       0.888233       0.733806       0.489227E-001  0.259643     
  0.218057E-003  0.103829       0.879208       0.423635       0.961952       0.956703       0.371878       0.126225       0.719297E-001  0.246444E-002
  0.800135       0.760812       0.780542       0.550913       0.951188E-002  0.107301       0.149513E-005  0.144950E-002  0.623491       0.257170     
  0.749114       0.682950       0.894943E-001  0.114228E-001  0.654863E-002  0.394167E-004
 
  0.696764       0.765463       0.775916       0.611518       0.148954E-001  0.109255       0.192875E-021  0.144052E-005  0.344597       0.225601     
  0.312474       0.209573       0.127792E-001  0.249989E-002  0.140468E-002  0.651035E-005  0.736694       0.772737       0.786108       0.601653     
  0.135909E-001  0.111841       0.145687E-015  0.539622E-004  0.446481       0.223693       0.467128       0.359672       0.304784E-001  0.534679E-002
  0.306571E-002  0.158144E-004  0.878060       0.822784       0.838758       0.642958       0.226117E-001  0.171004       0.481865E-006  0.146955E-001
  0.766838       0.321682       0.884386       0.852436       0.204037       0.440286E-001  0.249477E-001  0.357007E-003  0.765362       0.767628     
  0.784402       0.575793       0.117217E-001  0.111382       0.821655E-008  0.356907E-003  0.537373       0.229384       0.605921       0.509519     
  0.567098E-001  0.858797E-002  0.493746E-002  0.291841E-004  0.934932       0.873322       0.885363       0.727252       0.466005E-001  0.253630     
  0.182502E-003  0.987047E-001  0.876775       0.422867       0.960877       0.955285       0.364467       0.120268       0.683990E-001  0.222537E-002
  0.793474       0.754310       0.774603       0.541536       0.872388E-002  0.102603       0.789791E-006  0.112931E-002  0.610967       0.253033     
  0.735413       0.666210       0.821571E-001  0.986090E-002  0.567611E-002  0.309827E-004
 
 )
