TRANSMISSION%TAU_TOTAL = (
  0.377761       0.537338       0.752707       0.400452       0.559857       0.740726       0.789119       0.871834       0.837585       0.470362     
  0.624441       0.740909       0.937305       0.963292       0.912515       0.570228       0.708286       0.744093     
 )
TRANSMISSION%TAU_LAYERS = (
   1.00000        1.00000        1.00000        1.00000        1.00000        1.00000        1.00000        1.00000        1.00000        1.00000     
   1.00000        1.00000        1.00000        1.00000        1.00000        1.00000        1.00000        1.00000     
 
   1.00000        1.00000       0.999980        1.00000        1.00000       0.999978        1.00000        1.00000       0.999981        1.00000     
   1.00000       0.999977        1.00000        1.00000       0.999984        1.00000        1.00000       0.999978     
 
   1.00000        1.00000       0.999972        1.00000        1.00000       0.999970        1.00000        1.00000       0.999973        1.00000     
   1.00000       0.999969        1.00000        1.00000       0.999978        1.00000        1.00000       0.999969     
 
   1.00000        1.00000       0.999965        1.00000        1.00000       0.999964       0.999999        1.00000       0.999965        1.00000     
   1.00000       0.999962       0.999999        1.00000       0.999970       0.999999        1.00000       0.999960     
 
  0.999999       0.999999       0.999957       0.999999       0.999999       0.999957       0.999998       0.999999       0.999956       0.999999     
  0.999999       0.999955       0.999998       0.999999       0.999962       0.999998       0.999999       0.999951     
 
  0.999997       0.999998       0.999945       0.999997       0.999998       0.999945       0.999996       0.999997       0.999943       0.999996     
  0.999998       0.999943       0.999997       0.999998       0.999949       0.999996       0.999997       0.999936     
 
  0.999992       0.999994       0.999925       0.999991       0.999994       0.999925       0.999991       0.999994       0.999921       0.999989     
  0.999992       0.999923       0.999993       0.999995       0.999929       0.999989       0.999993       0.999912     
 
  0.999982       0.999987       0.999898       0.999980       0.999985       0.999898       0.999981       0.999987       0.999892       0.999976     
  0.999982       0.999895       0.999987       0.999991       0.999902       0.999976       0.999983       0.999881     
 
  0.999965       0.999975       0.999857       0.999959       0.999970       0.999856       0.999965       0.999975       0.999848       0.999954     
  0.999964       0.999851       0.999978       0.999985       0.999860       0.999951       0.999964       0.999833     
 
  0.999940       0.999957       0.999798       0.999929       0.999947       0.999796       0.999942       0.999958       0.999782       0.999920     
  0.999939       0.999788       0.999966       0.999977       0.999801       0.999914       0.999936       0.999761     
 
  0.999903       0.999932       0.999703       0.999885       0.999917       0.999698       0.999911       0.999939       0.999679       0.999869     
  0.999903       0.999688       0.999949       0.999968       0.999715       0.999862       0.999902       0.999641     
 
  0.999850       0.999901       0.999565       0.999825       0.999880       0.999555       0.999871       0.999917       0.999531       0.999800     
  0.999858       0.999540       0.999927       0.999958       0.999592       0.999796       0.999862       0.999470     
 
  0.999778       0.999860       0.999378       0.999744       0.999832       0.999360       0.999823       0.999890       0.999325       0.999711     
  0.999802       0.999337       0.999900       0.999943       0.999422       0.999714       0.999813       0.999235     
 
  0.999686       0.999804       0.999128       0.999643       0.999769       0.999101       0.999767       0.999854       0.999056       0.999604     
  0.999732       0.999066       0.999866       0.999920       0.999199       0.999615       0.999749       0.998929     
 
  0.999570       0.999728       0.998811       0.999525       0.999685       0.998773       0.999698       0.999798       0.998720       0.999481     
  0.999639       0.998720       0.999823       0.999883       0.998927       0.999497       0.999660       0.998546     
 
  0.999433       0.999624       0.998422       0.999389       0.999573       0.998376       0.999613       0.999716       0.998331       0.999341     
  0.999516       0.998306       0.999769       0.999827       0.998608       0.999355       0.999533       0.998099     
 
  0.999276       0.999486       0.997960       0.999233       0.999423       0.997907       0.999507       0.999597       0.997884       0.999177     
  0.999349       0.997823       0.999700       0.999744       0.998232       0.999184       0.999355       0.997583     
 
  0.999103       0.999305       0.997432       0.999054       0.999225       0.997370       0.999373       0.999432       0.997384       0.998981     
  0.999125       0.997267       0.999613       0.999630       0.997805       0.998976       0.999112       0.996992     
 
  0.998920       0.999077       0.996846       0.998847       0.998969       0.996770       0.999208       0.999211       0.996834       0.998748     
  0.998835       0.996640       0.999504       0.999477       0.997338       0.998727       0.998794       0.996318     
 
  0.998729       0.998800       0.996205       0.998615       0.998653       0.996107       0.999012       0.998934       0.996226       0.998479     
  0.998477       0.995931       0.999368       0.999282       0.996840       0.998439       0.998399       0.995549     
 
  0.998534       0.998487       0.995467       0.998364       0.998293       0.995348       0.998787       0.998614       0.995537       0.998178     
  0.998066       0.995114       0.999207       0.999055       0.996294       0.998122       0.997946       0.994654     
 
  0.998339       0.998157       0.994614       0.998100       0.997907       0.994487       0.998543       0.998268       0.994758       0.997856     
  0.997621       0.994201       0.999027       0.998808       0.995693       0.997785       0.997460       0.993627     
 
  0.998150       0.997835       0.993613       0.997829       0.997522       0.993493       0.998292       0.997921       0.993870       0.997521     
  0.997172       0.993166       0.998837       0.998560       0.995018       0.997438       0.996973       0.992446     
 
  0.997971       0.997539       0.992440       0.997564       0.997160       0.992386       0.998037       0.997591       0.992871       0.997183     
  0.996741       0.991979       0.998646       0.998324       0.994267       0.997088       0.996511       0.991132     
 
  0.997798       0.997266       0.991207       0.997300       0.996818       0.991100       0.997775       0.997275       0.991705       0.996834     
  0.996324       0.990625       0.998450       0.998097       0.993381       0.996732       0.996069       0.989593     
 
  0.997612       0.996998       0.990018       0.997022       0.996477       0.989656       0.997497       0.996957       0.990373       0.996463     
  0.995903       0.989064       0.998244       0.997869       0.992366       0.996360       0.995628       0.987836     
 
  0.997395       0.996709       0.988624       0.996717       0.996117       0.988080       0.997193       0.996620       0.988908       0.996059     
  0.995456       0.987285       0.998023       0.997629       0.991263       0.995959       0.995163       0.985906     
 
  0.997132       0.996379       0.987051       0.996379       0.995725       0.986253       0.996857       0.996250       0.987255       0.995618     
  0.994968       0.985300       0.997787       0.997368       0.990023       0.995518       0.994657       0.983710     
 
  0.996813       0.996000       0.985350       0.996006       0.995297       0.984197       0.996490       0.995848       0.985398       0.995138     
  0.994438       0.983094       0.997534       0.997086       0.988613       0.995033       0.994106       0.981222     
 
  0.996419       0.995557       0.983468       0.995571       0.994814       0.981975       0.996094       0.995409       0.983343       0.994616     
  0.993861       0.980641       0.997261       0.996780       0.987056       0.994496       0.993506       0.978462     
 
  0.995930       0.995044       0.981396       0.995021       0.994253       0.979616       0.995664       0.994938       0.981155       0.994052     
  0.993243       0.978026       0.996964       0.996452       0.985411       0.993892       0.992853       0.975512     
 
  0.995227       0.994415       0.979067       0.994179       0.993553       0.976951       0.995176       0.994416       0.978780       0.993413     
  0.992566       0.975180       0.996635       0.996095       0.983624       0.993166       0.992109       0.972319     
 
  0.994229       0.993651       0.976440       0.992969       0.992691       0.973938       0.994619       0.993836       0.976264       0.992646     
  0.991809       0.972120       0.996282       0.995713       0.981725       0.992212       0.991235       0.968864     
 
  0.992618       0.992644       0.973292       0.991164       0.991577       0.970414       0.993914       0.993162       0.973552       0.991414     
  0.990856       0.968644       0.995884       0.995291       0.979705       0.990816       0.990160       0.964943     
 
  0.990023       0.991249       0.969458       0.988562       0.990121       0.966304       0.992979       0.992377       0.970594       0.989299     
  0.989566       0.964488       0.995382       0.994811       0.977540       0.988742       0.988805       0.960419     
 
  0.986211       0.989360       0.964854       0.985049       0.988271       0.961572       0.991677       0.991434       0.967287       0.986008     
  0.987809       0.959490       0.994687       0.994248       0.975167       0.985899       0.987103       0.955271     
 
  0.980526       0.986630       0.959254       0.979958       0.985713       0.955961       0.989867       0.990288       0.963554       0.981140     
  0.985352       0.953534       0.993823       0.993599       0.972599       0.981887       0.984875       0.949325     
 
  0.972460       0.982757       0.952460       0.973300       0.982403       0.949500       0.987177       0.988785       0.959243       0.974124     
  0.981877       0.946425       0.992657       0.992816       0.969788       0.976463       0.981982       0.942525     
 
  0.961249       0.977220       0.944313       0.964631       0.978051       0.942111       0.983637       0.986901       0.954417       0.964251     
  0.976923       0.938007       0.991052       0.991863       0.966684       0.969255       0.978187       0.934820     
 
  0.946165       0.969423       0.934695       0.952995       0.972095       0.933452       0.978982       0.984503       0.949009       0.950865     
  0.969995       0.928146       0.988810       0.990660       0.963213       0.959881       0.973277       0.926117     
 
  0.927614       0.959368       0.923967       0.936799       0.963488       0.923206       0.972996       0.981446       0.942993       0.933288     
  0.960481       0.916960       0.985854       0.989152       0.959372       0.947614       0.966721       0.916359     
 
  0.903274       0.945467       0.911590       0.915282       0.951489       0.911191       0.965325       0.977518       0.936184       0.911607     
  0.948191       0.904426       0.982206       0.987314       0.955156       0.932605       0.958489       0.905443     
 
  0.867264       0.923630       0.896407       0.887041       0.934957       0.897519       0.955625       0.972469       0.928625       0.884908     
  0.932430       0.890775       0.977982       0.985182       0.950664       0.913947       0.947979       0.893504     
 
  0.813680       0.888802       0.877911       0.849464       0.911669       0.881985       0.944286       0.966426       0.920591       0.852394     
  0.912355       0.876035       0.973406       0.982857       0.946042       0.890875       0.934494       0.880557     
 
  0.741986       0.838903       0.856550       0.803490       0.881603       0.865021       0.931770       0.959567       0.912298       0.815821     
  0.888843       0.860741       0.968534       0.980335       0.941366       0.864666       0.918669       0.867052     
 
  0.657967       0.776641       0.833378       0.750165       0.845008       0.846925       0.918453       0.952079       0.903976       0.776476     
  0.862646       0.845203       0.963514       0.977675       0.936760       0.836500       0.901184       0.853322     
 
  0.571344       0.708251       0.809720       0.688329       0.800208       0.827692       0.904315       0.943942       0.895639       0.733062     
  0.832454       0.829339       0.958599       0.975091       0.932274       0.804505       0.880413       0.839244     
 
  0.492538       0.641997       0.787200       0.625712       0.752484       0.808734       0.890132       0.935590       0.887609       0.690648     
  0.801845       0.814172       0.953799       0.972501       0.927997       0.773426       0.859591       0.825849     
 
  0.420930       0.577979       0.765721       0.564148       0.703070       0.790336       0.875848       0.927021       0.879908       0.648920     
  0.770511       0.799628       0.949168       0.969955       0.923992       0.743974       0.839146       0.813284     
 
  0.350944       0.511329       0.743979       0.503105       0.651889       0.772287       0.861631       0.918322       0.872569       0.605511     
  0.736927       0.785254       0.945349       0.967839       0.920403       0.713100       0.817264       0.800976     
 
  0.296199       0.455862       0.724916       0.447740       0.603239       0.755532       0.848105       0.909907       0.865836       0.564711     
  0.704253       0.771899       0.942047       0.965980       0.917218       0.684411       0.796382       0.789722     
 
  0.251775       0.408192       0.707965       0.399898       0.559340       0.740544       0.835721       0.902085       0.859829       0.527976     
  0.673924       0.759917       0.939252       0.964402       0.914458       0.658582       0.777134       0.779734     
 
  0.216617       0.368398       0.693275       0.359836       0.521039       0.727495       0.824781       0.895080       0.854606       0.496136     
  0.646870       0.749477       0.936892       0.963057       0.912103       0.636222       0.760101       0.771096     
 
  0.190265       0.337133       0.681200       0.328385       0.489881       0.716743       0.815803       0.889266       0.850359       0.470362     
  0.624441       0.740909       0.935049       0.962001       0.910214       0.619201       0.746927       0.764320     
 
 )
