TRANSMISSION%TAU_TOTAL = (
  0.147863E-006  0.460466       0.563063E-004  0.483547       0.496052E-004  0.837284       0.969544E-004  0.551534       0.638739E-002  0.953985     
  0.170473E-003  0.645780     
 )
TRANSMISSION%TAU_LAYERS = (
   1.00000        1.00000        1.00000        1.00000        1.00000        1.00000        1.00000        1.00000        1.00000        1.00000     
   1.00000        1.00000     
 
  0.999989        1.00000       0.999989        1.00000       0.999989        1.00000       0.999988        1.00000       0.999992        1.00000     
  0.999985        1.00000     
 
  0.999954        1.00000       0.999956        1.00000       0.999956        1.00000       0.999956        1.00000       0.999966        1.00000     
  0.999941        1.00000     
 
  0.999867        1.00000       0.999880        1.00000       0.999883        1.00000       0.999881        1.00000       0.999909        1.00000     
  0.999843        1.00000     
 
  0.999702        1.00000       0.999735        1.00000       0.999745       0.999999       0.999738        1.00000       0.999800       0.999999     
  0.999667       0.999999     
 
  0.999440       0.999999       0.999494       0.999998       0.999523       0.999998       0.999499       0.999998       0.999621       0.999998     
  0.999394       0.999998     
 
  0.999089       0.999996       0.999150       0.999996       0.999211       0.999996       0.999152       0.999995       0.999363       0.999997     
  0.999021       0.999995     
 
  0.998705       0.999992       0.998756       0.999990       0.998856       0.999991       0.998755       0.999988       0.999066       0.999994     
  0.998609       0.999989     
 
  0.998274       0.999983       0.998306       0.999980       0.998456       0.999984       0.998303       0.999977       0.998731       0.999990     
  0.998145       0.999977     
 
  0.997834       0.999971       0.997838       0.999965       0.998039       0.999973       0.997827       0.999960       0.998377       0.999985     
  0.997662       0.999959     
 
  0.997353       0.999954       0.997323       0.999944       0.997577       0.999959       0.997290       0.999935       0.997981       0.999977     
  0.997123       0.999935     
 
  0.996811       0.999929       0.996743       0.999915       0.997049       0.999940       0.996671       0.999901       0.997531       0.999967     
  0.996493       0.999903     
 
  0.996152       0.999893       0.996022       0.999874       0.996393       0.999914       0.995891       0.999854       0.996977       0.999951     
  0.995688       0.999859     
 
  0.995319       0.999839       0.995086       0.999815       0.995550       0.999875       0.994876       0.999789       0.996269       0.999926     
  0.994632       0.999796     
 
  0.994261       0.999761       0.993871       0.999731       0.994445       0.999814       0.993546       0.999698       0.995347       0.999885     
  0.993251       0.999702     
 
  0.992935       0.999651       0.992321       0.999614       0.993015       0.999722       0.991824       0.999571       0.994152       0.999822     
  0.991474       0.999565     
 
  0.991318       0.999501       0.990404       0.999454       0.991209       0.999590       0.989662       0.999395       0.992643       0.999730     
  0.989253       0.999371     
 
  0.989398       0.999305       0.988082       0.999241       0.988957       0.999406       0.986991       0.999157       0.990751       0.999603     
  0.986521       0.999106     
 
  0.987129       0.999056       0.985308       0.998965       0.986208       0.999163       0.983737       0.998847       0.988428       0.999433     
  0.983237       0.998759     
 
  0.984511       0.998754       0.982051       0.998625       0.982874       0.998859       0.979802       0.998463       0.985599       0.999218     
  0.979334       0.998328     
 
  0.981547       0.998415       0.978338       0.998240       0.978890       0.998511       0.975119       0.998025       0.982226       0.998970     
  0.974773       0.997838     
 
  0.978157       0.998061       0.974162       0.997834       0.974251       0.998141       0.969753       0.997561       0.978321       0.998706     
  0.969546       0.997320     
 
  0.974195       0.997723       0.969376       0.997440       0.968732       0.997781       0.963482       0.997107       0.973709       0.998448     
  0.963415       0.996816     
 
  0.969471       0.997424       0.963878       0.997086       0.962197       0.997455       0.956378       0.996693       0.968260       0.998213     
  0.956289       0.996360     
 
  0.963718       0.997160       0.957582       0.996767       0.954945       0.997158       0.948931       0.996313       0.962335       0.997999     
  0.948197       0.995946     
 
  0.957080       0.996913       0.950082       0.996464       0.946465       0.996874       0.940221       0.995946       0.955522       0.997795     
  0.938062       0.995552     
 
  0.947804       0.996655       0.941196       0.996151       0.936990       0.996580       0.930408       0.995567       0.948111       0.997585     
  0.925294       0.995147     
 
  0.934923       0.996368       0.929447       0.995814       0.926099       0.996262       0.919178       0.995158       0.939671       0.997361     
  0.907751       0.994711     
 
  0.915926       0.996043       0.910449       0.995448       0.913900       0.995918       0.906651       0.994716       0.928742       0.997120     
  0.878871       0.994237     
 
  0.880707       0.995669       0.871324       0.995035       0.896769       0.995546       0.887645       0.994236       0.912759       0.996860     
  0.837385       0.993719     
 
  0.820490       0.995234       0.796707       0.994552       0.866776       0.995145       0.854097       0.993721       0.887316       0.996579     
  0.780092       0.993150     
 
  0.720684       0.994672       0.671046       0.993896       0.817625       0.994698       0.794292       0.993147       0.852879       0.996273     
  0.704863       0.992497     
 
  0.596051       0.993942       0.535675       0.993025       0.754007       0.994201       0.696339       0.992490       0.814412       0.995943     
  0.604466       0.991701     
 
  0.452570       0.992852       0.403296       0.991794       0.672226       0.993611       0.543971       0.991564       0.770143       0.995578     
  0.474235       0.990641     
 
  0.317692       0.991153       0.289327       0.990058       0.573827       0.992883       0.382438       0.990107       0.694762       0.995146     
  0.343867       0.989165     
 
  0.205889       0.988684       0.196974       0.987740       0.460670       0.991937       0.245421       0.987913       0.593731       0.994603     
  0.237948       0.987195     
 
  0.123712       0.984948       0.124208       0.984361       0.342834       0.990683       0.146194       0.984659       0.493875       0.993953     
  0.153486       0.984447     
 
  0.684492E-001  0.979533       0.749681E-001  0.979888       0.237459       0.988868       0.816320E-001  0.979898       0.396226       0.993114     
  0.943306E-001  0.980726     
 
  0.348457E-001  0.971784       0.426640E-001  0.973949       0.158378       0.986482       0.424754E-001  0.973037       0.303557       0.992008     
  0.552705E-001  0.975724     
 
  0.167248E-001  0.961018       0.226146E-001  0.965783       0.102035       0.983330       0.207811E-001  0.963483       0.221365       0.990502     
  0.309194E-001  0.969142     
 
  0.788412E-002  0.947406       0.108086E-001  0.954060       0.629367E-001  0.979226       0.936786E-002  0.950553       0.155758       0.988524     
  0.160913E-001  0.960337     
 
  0.305766E-002  0.928972       0.452320E-002  0.937983       0.369613E-001  0.973882       0.418482E-002  0.934158       0.107268       0.986058     
  0.811748E-002  0.949340     
 
  0.104500E-002  0.900705       0.186599E-002  0.916259       0.206179E-001  0.966993       0.199273E-002  0.913490       0.729101E-001  0.983169     
  0.416478E-002  0.935401     
 
  0.371980E-003  0.857000       0.744840E-003  0.886405       0.115877E-001  0.958787       0.864073E-003  0.887690       0.508780E-001  0.980006     
  0.196439E-002  0.917760     
 
  0.131493E-003  0.796372       0.287149E-003  0.848808       0.661226E-002  0.949568       0.375479E-003  0.858067       0.363039E-001  0.976586     
  0.902227E-003  0.897368     
 
  0.476183E-004  0.723006       0.123864E-003  0.804048       0.390771E-002  0.939601       0.197748E-003  0.825596       0.263528E-001  0.973004     
  0.480847E-003  0.875096     
 
  0.122265E-004  0.644924       0.563063E-004  0.750618       0.234762E-002  0.928872       0.110075E-003  0.788886       0.194800E-001  0.969515     
  0.257231E-003  0.849103     
 
  0.122265E-004  0.571637       0.563063E-004  0.695111       0.144675E-002  0.917977       0.969544E-004  0.752345       0.149801E-001  0.966056     
  0.170473E-003  0.823437     
 
  0.258033E-006  0.502967       0.563063E-004  0.639104       0.887718E-003  0.906887       0.969544E-004  0.715657       0.117289E-001  0.962672     
  0.170473E-003  0.798668     
 
  0.101229E-006  0.433618       0.563063E-004  0.582312       0.558712E-003  0.895724       0.969544E-004  0.676855       0.957196E-002  0.959888     
  0.170473E-003  0.772350     
 
  0.101229E-006  0.377602       0.563063E-004  0.529577       0.361610E-003  0.885001       0.969544E-004  0.639738       0.806472E-002  0.957467     
  0.170473E-003  0.747543     
 
  0.101229E-006  0.330748       0.563063E-004  0.483002       0.240906E-003  0.875099       0.969544E-004  0.605808       0.702127E-002  0.955419     
  0.170473E-003  0.724931     
 
  0.101229E-006  0.292603       0.563063E-004  0.443174       0.167755E-003  0.866287       0.969544E-004  0.575973       0.626048E-002  0.953681     
  0.170473E-003  0.705132     
 
  0.101229E-006  0.263285       0.563063E-004  0.411338       0.124064E-003  0.859013       0.969544E-004  0.551534       0.572639E-002  0.952323     
  0.170473E-003  0.689946     
 
 )
