TRANSMISSION%TAU_TOTAL = (
  0.540261       0.389969       0.189075E-010  0.767525       0.561677       0.413401       0.192875E-021  0.752146       0.870723       0.805205     
  0.573695E-009  0.830278       0.624965       0.484515       0.192875E-021  0.747044       0.962516       0.946832       0.392805E-003  0.903024     
  0.707131       0.587829       0.386390E-025  0.742103     
 )
TRANSMISSION%TAU_LAYERS = (
   1.00000        1.00000        1.00000        1.00000        1.00000        1.00000        1.00000        1.00000        1.00000        1.00000     
   1.00000        1.00000        1.00000        1.00000        1.00000        1.00000        1.00000        1.00000        1.00000        1.00000     
   1.00000        1.00000        1.00000        1.00000     
 
   1.00000        1.00000       0.999989        1.00000        1.00000        1.00000       0.999989        1.00000        1.00000        1.00000     
  0.999989        1.00000        1.00000        1.00000       0.999989        1.00000        1.00000        1.00000       0.999992        1.00000     
   1.00000        1.00000       0.999985        1.00000     
 
   1.00000        1.00000       0.999954        1.00000        1.00000        1.00000       0.999957        1.00000        1.00000        1.00000     
  0.999956        1.00000        1.00000        1.00000       0.999957        1.00000        1.00000        1.00000       0.999965        1.00000     
   1.00000        1.00000       0.999940        1.00000     
 
   1.00000        1.00000       0.999864        1.00000        1.00000        1.00000       0.999879        1.00000       0.999999        1.00000     
  0.999879        1.00000        1.00000        1.00000       0.999881        1.00000       0.999999        1.00000       0.999905        1.00000     
   1.00000        1.00000       0.999838       0.999999     
 
  0.999999       0.999999       0.999686       0.999999       0.999999       0.999999       0.999722       0.999999       0.999999       0.999999     
  0.999730       0.999999       0.999999       0.999999       0.999727       0.999999       0.999999       0.999999       0.999787       0.999999     
  0.999999       0.999999       0.999646       0.999999     
 
  0.999997       0.999998       0.999388       0.999998       0.999997       0.999998       0.999449       0.999998       0.999996       0.999998     
  0.999479       0.999998       0.999997       0.999998       0.999455       0.999998       0.999997       0.999998       0.999587       0.999999     
  0.999996       0.999998       0.999332       0.999998     
 
  0.999992       0.999996       0.998971       0.999997       0.999991       0.999995       0.999042       0.999997       0.999991       0.999995     
  0.999111       0.999997       0.999989       0.999994       0.999043       0.999996       0.999993       0.999996       0.999288       0.999998     
  0.999989       0.999994       0.998888       0.999996     
 
  0.999982       0.999990       0.998506       0.999994       0.999979       0.999988       0.998564       0.999994       0.999980       0.999989     
  0.998683       0.999994       0.999975       0.999986       0.998560       0.999993       0.999986       0.999993       0.998933       0.999996     
  0.999975       0.999986       0.998389       0.999992     
 
  0.999962       0.999980       0.997986       0.999989       0.999956       0.999976       0.998019       0.999989       0.999961       0.999980     
  0.998202       0.999989       0.999949       0.999972       0.998013       0.999988       0.999976       0.999987       0.998531       0.999992     
  0.999944       0.999971       0.997830       0.999985     
 
  0.999933       0.999964       0.997463       0.999981       0.999921       0.999957       0.997461       0.999979       0.999932       0.999965     
  0.997709       0.999980       0.999910       0.999951       0.997445       0.999977       0.999962       0.999980       0.998113       0.999986     
  0.999898       0.999948       0.997262       0.999972     
 
  0.999890       0.999941       0.996917       0.999964       0.999871       0.999930       0.996874       0.999961       0.999895       0.999946     
  0.997188       0.999963       0.999852       0.999919       0.996831       0.999958       0.999944       0.999970       0.997661       0.999975     
  0.999836       0.999915       0.996662       0.999948     
 
  0.999833       0.999908       0.996338       0.999936       0.999804       0.999892       0.996254       0.999930       0.999854       0.999922     
  0.996625       0.999936       0.999776       0.999875       0.996169       0.999924       0.999923       0.999958       0.997171       0.999957     
  0.999764       0.999874       0.996006       0.999909     
 
  0.999759       0.999864       0.995673       0.999891       0.999720       0.999841       0.995526       0.999881       0.999806       0.999894     
  0.995961       0.999895       0.999681       0.999819       0.995382       0.999870       0.999897       0.999942       0.996595       0.999929     
  0.999679       0.999823       0.995209       0.999849     
 
  0.999665       0.999806       0.994856       0.999822       0.999616       0.999778       0.994605       0.999807       0.999749       0.999860     
  0.995127       0.999835       0.999568       0.999751       0.994385       0.999791       0.999861       0.999922       0.995877       0.999888     
  0.999577       0.999761       0.994185       0.999761     
 
  0.999547       0.999735       0.993829       0.999722       0.999490       0.999704       0.993412       0.999701       0.999673       0.999819     
  0.994038       0.999746       0.999434       0.999673       0.993078       0.999677       0.999812       0.999897       0.994949       0.999826     
  0.999451       0.999689       0.992843       0.999633     
 
  0.999399       0.999650       0.992536       0.999580       0.999337       0.999618       0.991874       0.999552       0.999570       0.999768     
  0.992615       0.999617       0.999271       0.999585       0.991364       0.999515       0.999743       0.999865       0.993741       0.999736     
  0.999286       0.999601       0.991097       0.999449     
 
  0.999219       0.999552       0.990948       0.999383       0.999150       0.999521       0.989952       0.999344       0.999430       0.999703     
  0.990799       0.999433       0.999067       0.999481       0.989183       0.999289       0.999647       0.999823       0.992202       0.999607     
  0.999072       0.999493       0.988887       0.999190     
 
  0.999001       0.999443       0.989042       0.999117       0.998916       0.999406       0.987601       0.999059       0.999242       0.999621     
  0.988514       0.999176       0.998806       0.999355       0.986458       0.998974       0.999519       0.999770       0.990260       0.999424     
  0.998794       0.999362       0.986142       0.998833     
 
  0.998746       0.999326       0.986768       0.998773       0.998629       0.999273       0.984780       0.998683       0.998999       0.999516     
  0.985708       0.998833       0.998481       0.999203       0.983123       0.998558       0.999352       0.999701       0.987863       0.999177     
  0.998442       0.999201       0.982824       0.998361     
 
  0.998455       0.999200       0.984125       0.998338       0.998289       0.999120       0.981449       0.998204       0.998702       0.999388     
  0.982282       0.998391       0.998092       0.999024       0.979065       0.998024       0.999142       0.999614       0.984928       0.998857     
  0.998018       0.999012       0.978855       0.997758     
 
  0.998139       0.999068       0.981111       0.997798       0.997911       0.998950       0.977632       0.997607       0.998363       0.999239     
  0.978155       0.997838       0.997652       0.998821       0.974198       0.997357       0.998898       0.999508       0.981407       0.998453     
  0.997542       0.998798       0.974181       0.997007     
 
  0.997814       0.998931       0.977642       0.997138       0.997513       0.998767       0.973325       0.996879       0.998000       0.999073     
  0.973301       0.997162       0.997184       0.998598       0.968566       0.996547       0.998634       0.999387       0.977293       0.997956     
  0.997040       0.998565       0.968780       0.996095     
 
  0.997501       0.998792       0.973544       0.996330       0.997119       0.998575       0.968368       0.995992       0.997640       0.998896     
  0.967523       0.996341       0.996715       0.998362       0.961998       0.995567       0.998370       0.999256       0.972445       0.997350     
  0.996539       0.998319       0.962417       0.994990     
 
  0.997218       0.998652       0.968653       0.995353       0.996751       0.998380       0.962627       0.994930       0.997297       0.998712     
  0.960650       0.995359       0.996266       0.998116       0.954491       0.994393       0.998118       0.999120       0.966706       0.996624     
  0.996064       0.998062       0.954948       0.993670     
 
  0.996962       0.998509       0.962612       0.994187       0.996405       0.998178       0.955999       0.993665       0.996968       0.998517     
  0.952957       0.994190       0.995831       0.997857       0.946587       0.993000       0.997878       0.998977       0.960405       0.995761     
  0.995611       0.997793       0.946409       0.992104     
 
  0.996710       0.998349       0.955742       0.992817       0.996063       0.997960       0.948056       0.992169       0.996639       0.998305     
  0.943888       0.992807       0.995391       0.997576       0.937261       0.991354       0.997637       0.998822       0.953111       0.994738     
  0.995162       0.997504       0.935588       0.990255     
 
  0.996437       0.998165       0.945988       0.991228       0.995701       0.997718       0.938632       0.990444       0.996289       0.998070     
  0.933743       0.991212       0.994925       0.997266       0.926759       0.989449       0.997385       0.998654       0.945189       0.993558     
  0.994691       0.997186       0.921860       0.988126     
 
  0.996121       0.997945       0.932142       0.989411       0.995308       0.997447       0.926026       0.988454       0.995909       0.997807     
  0.922057       0.989381       0.994421       0.996922       0.914753       0.987264       0.997118       0.998469       0.936147       0.992203     
  0.994183       0.996833       0.902803       0.985676     
 
  0.995753       0.997685       0.911352       0.987379       0.994882       0.997147       0.905228       0.986203       0.995496       0.997519     
  0.908907       0.987316       0.993874       0.996547       0.901337       0.984802       0.996833       0.998270       0.924285       0.990670     
  0.993632       0.996441       0.870849       0.982903     
 
  0.995316       0.997372       0.871970       0.985098       0.994399       0.996799       0.861413       0.983679       0.995051       0.997205     
  0.890205       0.984994       0.993283       0.996136       0.880577       0.982030       0.996526       0.998053       0.906716       0.988944     
  0.993036       0.996007       0.824502       0.979775     
 
  0.994801       0.996993       0.803780       0.982571       0.993832       0.996371       0.776841       0.980894       0.994576       0.996862     
  0.856783       0.982435       0.992654       0.995689       0.843126       0.978976       0.996197       0.997816       0.878365       0.987044     
  0.992388       0.995518       0.760117       0.976321     
 
  0.994163       0.996466       0.691326       0.979725       0.993117       0.995736       0.635799       0.977729       0.994053       0.996475     
  0.801510       0.979600       0.991969       0.995182       0.775842       0.975583       0.995842       0.997554       0.839742       0.984938     
  0.991647       0.994941       0.675855       0.972497     
 
  0.993379       0.995733       0.553901       0.976551       0.992231       0.994836       0.488279       0.974180       0.993471       0.996040     
  0.729827       0.976526       0.991203       0.994590       0.665762       0.971874       0.995462       0.997272       0.796476       0.982649     
  0.990769       0.994202       0.564812       0.968302     
 
  0.992338       0.994537       0.400296       0.972875       0.991078       0.993469       0.348512       0.970112       0.992790       0.995503     
  0.638629       0.973157       0.990228       0.993667       0.498443       0.967684       0.995044       0.996955       0.746795       0.980152     
  0.989679       0.993139       0.424145       0.963579     
 
  0.990894       0.992533       0.261023       0.968586       0.989569       0.991437       0.232187       0.965489       0.991990       0.994807     
  0.530819       0.969485       0.988903       0.992056       0.327391       0.962857       0.994566       0.996568       0.662424       0.977450     
  0.988294       0.991547       0.287616       0.958259     
 
  0.988939       0.989488       0.150730       0.963610       0.987650       0.988621       0.142061       0.960275       0.991023       0.993839     
  0.409538       0.965434       0.987094       0.989460       0.188475       0.957267       0.994000       0.996051       0.551288       0.974496     
  0.986546       0.989309       0.181187       0.952316     
 
  0.986130       0.984753       0.764131E-001  0.957770       0.985008       0.984393       0.768274E-001  0.954271       0.989843       0.992479     
  0.286335       0.960948       0.984568       0.985454       0.952475E-001  0.950819       0.993341       0.995411       0.443423       0.971305     
  0.984257       0.986048       0.101770       0.945620     
 
  0.982163       0.977810       0.330561E-001  0.950923       0.981597       0.978720       0.376408E-001  0.947510       0.988296       0.990385     
  0.180342       0.955924       0.981008       0.979466       0.420795E-001  0.943376       0.992543       0.994539       0.340282       0.967852     
  0.981285       0.981509       0.517394E-001  0.938141     
 
  0.976522       0.967870       0.118229E-001  0.942943       0.977130       0.971150       0.161344E-001  0.939932       0.986359       0.987540     
  0.105541       0.950413       0.975955       0.970763       0.155568E-001  0.934819       0.991568       0.993325       0.244815       0.964106     
  0.977396       0.975309       0.232535E-001  0.929843     
 
  0.968617       0.954170       0.365083E-002  0.933722       0.971048       0.960742       0.590414E-002  0.931276       0.983898       0.983691     
  0.573156E-001  0.944375       0.968921       0.958657       0.478209E-002  0.925039       0.990335       0.991588       0.163387       0.960021     
  0.972377       0.967061       0.917222E-002  0.920668     
 
  0.958457       0.937037       0.102502E-002  0.923534       0.962320       0.945910       0.172857E-002  0.921294       0.980771       0.978606     
  0.278184E-001  0.937798       0.959305       0.942420       0.115790E-002  0.914114       0.988792       0.989231       0.101505       0.955607     
  0.965703       0.956018       0.306787E-002  0.910566     
 
  0.944474       0.914182       0.162044E-003  0.911952       0.950214       0.925839       0.341962E-003  0.909844       0.976766       0.971928     
  0.120406E-001  0.930553       0.946925       0.922074       0.238654E-003  0.902037       0.986915       0.986241       0.598699E-001  0.950859     
  0.957344       0.942282       0.884269E-003  0.899489     
 
  0.922645       0.879741       0.119161E-004  0.898058       0.933618       0.899059       0.451827E-004  0.897006       0.971640       0.963298     
  0.460849E-002  0.922680       0.931106       0.896673       0.382221E-004  0.888992       0.984741       0.982712       0.335684E-001  0.945860     
  0.946715       0.924933       0.234918E-003  0.887547     
 
  0.888021       0.827609       0.166567E-008  0.881375       0.910352       0.862871       0.316209E-006  0.882602       0.965525       0.953030     
  0.170643E-002  0.914409       0.911024       0.865353       0.266383E-006  0.875010       0.982374       0.978821       0.192393E-001  0.940736     
  0.933132       0.903149       0.226561E-004  0.874774     
 
  0.838577       0.756932       0.159778E-008  0.862183       0.880408       0.818068       0.440794E-007  0.866962       0.958599       0.941537     
  0.615906E-003  0.905929       0.887555       0.829778       0.466420E-007  0.860526       0.979809       0.974618       0.110594E-001  0.935564     
  0.917234       0.878122       0.511727E-005  0.861541     
 
  0.776988       0.673269       0.159778E-008  0.841329       0.844040       0.765599       0.590016E-008  0.850348       0.951055       0.929172     
  0.243358E-003  0.897445       0.861445       0.791222       0.575589E-008  0.845831       0.977107       0.970231       0.639889E-002  0.930463     
  0.899692       0.851009       0.148898E-005  0.848155     
 
  0.709363       0.586341       0.138268E-008  0.819893       0.799607       0.704209       0.148489E-008  0.832714       0.942870       0.915920     
  0.881463E-004  0.888972       0.831399       0.748369       0.215027E-008  0.830849       0.974481       0.965913       0.374032E-002  0.925479     
  0.878904       0.819928       0.454523E-006  0.834509     
 
  0.643829       0.506753       0.138268E-008  0.799305       0.752320       0.641594       0.148489E-008  0.815256       0.934481       0.902523     
  0.271819E-004  0.880813       0.800961       0.706280       0.127915E-008  0.816471       0.971851       0.961647       0.226261E-002  0.920714     
  0.858075       0.789577       0.144392E-006  0.821494     
 
  0.580481       0.434025       0.138268E-008  0.779530       0.703397       0.579631       0.148489E-008  0.798248       0.925887       0.888942     
  0.686942E-005  0.873008       0.769828       0.664648       0.127915E-008  0.802664       0.969271       0.957490       0.136817E-002  0.916229     
  0.837633       0.760680       0.144392E-006  0.809263     
 
  0.514497       0.362576       0.101895E-011  0.759461       0.652748       0.517887       0.595636E-013  0.781540       0.917174       0.875344     
  0.172848E-005  0.865593       0.736494       0.621138       0.883165E-012  0.789080       0.967122       0.954072       0.916353E-003  0.912145     
  0.815787       0.730226       0.132452E-008  0.797373     
 
  0.459512       0.306481       0.192875E-021  0.741724       0.604609       0.461629       0.192875E-021  0.765960       0.908755       0.862347     
  0.388773E-006  0.858796       0.704084       0.580069       0.388472E-018  0.776437       0.965237       0.951105       0.645734E-003  0.908487     
  0.794955       0.701810       0.873123E-012  0.786485     
 
  0.412199       0.260818       0.192875E-021  0.725880       0.561164       0.412836       0.192875E-021  0.751976       0.900937       0.850401     
  0.952431E-007  0.852736       0.674013       0.542958       0.192875E-021  0.765082       0.963639       0.948590       0.480914E-003  0.905290     
  0.775767       0.676129       0.541552E-015  0.776818     
 
  0.372654       0.224586       0.192875E-021  0.712131       0.523246       0.371852       0.192875E-021  0.739783       0.893938       0.839816     
  0.285949E-007  0.847464       0.647196       0.510694       0.192875E-021  0.755178       0.962278       0.946460       0.376300E-003  0.902544     
  0.758793       0.653827       0.135239E-017  0.768443     
 
  0.341549       0.197371       0.192875E-021  0.700805       0.492387       0.339598       0.192875E-021  0.729716       0.888133       0.831110     
  0.108623E-007  0.843176       0.624965       0.484515       0.192875E-021  0.747044       0.961210       0.944796       0.311094E-003  0.900327     
  0.745659       0.636824       0.183240E-019  0.761835     
 
 )
