TRANSMISSION%TAU_TOTAL = (
  0.768051       0.825216       0.826869       0.663083       0.965317E-002  0.992600E-001  0.192875E-021  0.185747E-003  0.504844       0.313879     
  0.515357       0.409473       0.499770E-001  0.133991E-001  0.679128E-002  0.541133E-004  0.760336       0.801072       0.804160       0.610583     
  0.615131E-002  0.752590E-001  0.140393E-011  0.174731E-003  0.506569       0.243506       0.539386       0.435470       0.465359E-001  0.927502E-002
  0.472460E-002  0.263262E-004  0.869603       0.821804       0.827122       0.603249       0.726844E-002  0.891380E-001  0.728708E-006  0.104431E-001
  0.750160       0.309099       0.866645       0.828069       0.179357       0.347853E-001  0.176589E-001  0.178479E-003  0.765758       0.780706     
  0.785463       0.559922       0.439689E-002  0.618513E-001  0.299410E-004  0.398491E-003  0.545672       0.225670       0.606423       0.508896     
  0.574460E-001  0.882304E-002  0.449401E-002  0.225895E-004  0.940861       0.886484       0.889566       0.722696       0.207614E-001  0.173089     
  0.239112E-003  0.108155       0.881605       0.417225       0.962604       0.957220       0.374925       0.129121       0.675289E-001  0.205035E-002
  0.775672       0.751153       0.758011       0.496336       0.251027E-002  0.450678E-001  0.126929E-003  0.581646E-003  0.582574       0.236537     
  0.696093       0.617409       0.641773E-001  0.654024E-002  0.333773E-002  0.114435E-004
 )
TRANSMISSION%TAU_LAYERS = (
   1.00000        1.00000        1.00000        1.00000        1.00000        1.00000        1.00000        1.00000        1.00000        1.00000     
   1.00000        1.00000        1.00000        1.00000        1.00000        1.00000        1.00000        1.00000        1.00000        1.00000     
   1.00000        1.00000        1.00000        1.00000        1.00000        1.00000        1.00000        1.00000        1.00000        1.00000     
   1.00000        1.00000        1.00000        1.00000        1.00000        1.00000        1.00000        1.00000        1.00000        1.00000     
   1.00000        1.00000        1.00000        1.00000        1.00000        1.00000        1.00000        1.00000        1.00000        1.00000     
   1.00000        1.00000        1.00000        1.00000        1.00000        1.00000        1.00000        1.00000        1.00000        1.00000     
   1.00000        1.00000        1.00000        1.00000        1.00000        1.00000        1.00000        1.00000        1.00000        1.00000     
   1.00000        1.00000        1.00000        1.00000        1.00000        1.00000        1.00000        1.00000        1.00000        1.00000     
   1.00000        1.00000        1.00000        1.00000        1.00000        1.00000        1.00000        1.00000        1.00000        1.00000     
   1.00000        1.00000        1.00000        1.00000        1.00000        1.00000     
 
   1.00000        1.00000        1.00000        1.00000       0.999572       0.999991       0.999991       0.999999        1.00000       0.999974     
   1.00000        1.00000       0.999992       0.999950       0.999896       0.999664        1.00000        1.00000        1.00000        1.00000     
  0.999569       0.999991       0.999991       0.999999        1.00000       0.999973        1.00000        1.00000       0.999994       0.999961     
  0.999919       0.999703        1.00000        1.00000        1.00000        1.00000       0.999522       0.999989       0.999990       0.999998     
   1.00000       0.999976        1.00000        1.00000       0.999982       0.999915       0.999818       0.999532        1.00000        1.00000     
   1.00000        1.00000       0.999544       0.999991       0.999990       0.999999        1.00000       0.999968        1.00000        1.00000     
  0.999994       0.999961       0.999920       0.999701        1.00000        1.00000        1.00000        1.00000       0.999612       0.999990     
  0.999992       0.999999        1.00000       0.999980        1.00000        1.00000       0.999981       0.999919       0.999824       0.999554     
   1.00000        1.00000        1.00000        1.00000       0.999421       0.999986       0.999987       0.999998        1.00000       0.999965     
   1.00000        1.00000       0.999983       0.999908       0.999807       0.999499     
 
   1.00000        1.00000        1.00000        1.00000       0.999057       0.999972       0.999959       0.999994        1.00000       0.999945     
   1.00000        1.00000       0.999965       0.999815       0.999613       0.999234        1.00000        1.00000        1.00000        1.00000     
  0.999068       0.999972       0.999962       0.999995        1.00000       0.999949        1.00000        1.00000       0.999972       0.999842     
  0.999671       0.999300        1.00000        1.00000        1.00000        1.00000       0.998931       0.999965       0.999961       0.999994     
   1.00000       0.999946        1.00000        1.00000       0.999934       0.999717       0.999394       0.998985        1.00000        1.00000     
   1.00000        1.00000       0.999041       0.999971       0.999962       0.999995        1.00000       0.999944        1.00000        1.00000     
  0.999973       0.999843       0.999674       0.999302        1.00000        1.00000        1.00000        1.00000       0.999053       0.999970     
  0.999969       0.999995        1.00000       0.999954        1.00000        1.00000       0.999930       0.999729       0.999410       0.998991     
   1.00000        1.00000        1.00000        1.00000       0.998804       0.999958       0.999947       0.999992        1.00000       0.999921     
   1.00000        1.00000       0.999935       0.999695       0.999358       0.998951     
 
   1.00000        1.00000        1.00000        1.00000       0.998445       0.999933       0.999880       0.999983       0.999999       0.999878     
   1.00000        1.00000       0.999888       0.999512       0.998976       0.998609        1.00000        1.00000        1.00000        1.00000     
  0.998455       0.999933       0.999893       0.999985       0.999999       0.999870        1.00000        1.00000       0.999899       0.999538     
  0.999035       0.998668        1.00000        1.00000        1.00000        1.00000       0.998253       0.999919       0.999893       0.999982     
  0.999999       0.999862        1.00000        1.00000       0.999824       0.999351       0.998620       0.998269        1.00000        1.00000     
   1.00000        1.00000       0.998421       0.999929       0.999894       0.999985       0.999999       0.999857        1.00000        1.00000     
  0.999900       0.999529       0.999021       0.998660        1.00000        1.00000        1.00000        1.00000       0.998384       0.999931     
  0.999916       0.999985       0.999999       0.999865        1.00000        1.00000       0.999821       0.999386       0.998670       0.998279     
   1.00000        1.00000        1.00000        1.00000       0.998112       0.999904       0.999857       0.999978       0.999999       0.999807     
   1.00000        1.00000       0.999824       0.999298       0.998533       0.998222     
 
  0.999999        1.00000        1.00000        1.00000       0.997663       0.999864       0.999720       0.999957       0.999998       0.999662     
   1.00000        1.00000       0.999713       0.999001       0.997918       0.997696       0.999999       0.999999        1.00000        1.00000     
  0.997631       0.999858       0.999753       0.999961       0.999998       0.999608        1.00000        1.00000       0.999713       0.998988     
  0.997897       0.997687       0.999999        1.00000        1.00000        1.00000       0.997425       0.999842       0.999760       0.999958     
  0.999998       0.999621        1.00000        1.00000       0.999617       0.998817       0.997514       0.997313       0.999999       0.999999     
  0.999999        1.00000       0.997570       0.999849       0.999757       0.999961       0.999998       0.999577        1.00000        1.00000     
  0.999706       0.998955       0.997837       0.997644        1.00000        1.00000        1.00000        1.00000       0.997629       0.999868     
  0.999811       0.999966       0.999998       0.999651        1.00000       0.999999       0.999637       0.998914       0.997678       0.997415     
  0.999999       0.999999       0.999999       0.999999       0.997225       0.999812       0.999685       0.999947       0.999997       0.999460     
   1.00000        1.00000       0.999602       0.998717       0.997349       0.997208     
 
  0.999999       0.999999       0.999999       0.999999       0.996545       0.999744       0.999452       0.999899       0.999994       0.999044     
  0.999999       0.999999       0.999372       0.998310       0.996490       0.996371       0.999999       0.999999       0.999999       0.999999     
  0.996426       0.999727       0.999508       0.999906       0.999993       0.998869       0.999999       0.999999       0.999338       0.998248     
  0.996362       0.996249       0.999999       0.999999       0.999999       0.999999       0.996311       0.999718       0.999535       0.999907     
  0.999994       0.998936       0.999999       0.999999       0.999269       0.998162       0.996163       0.996044       0.999999       0.999999     
  0.999999       0.999999       0.996271       0.999704       0.999513       0.999904       0.999993       0.998815       0.999999       0.999999     
  0.999296       0.998170       0.996204       0.996097       0.999999       0.999999       0.999999       0.999999       0.996691       0.999772     
  0.999633       0.999928       0.999994       0.999102       0.999999       0.999999       0.999353       0.998344       0.996504       0.996337     
  0.999998       0.999999       0.999999       0.999999       0.995959       0.999661       0.999402       0.999880       0.999991       0.998524     
  0.999999       0.999999       0.999209       0.998005       0.995885       0.995800     
 
  0.999998       0.999998       0.999998       0.999998       0.994923       0.999557       0.999080       0.999787       0.999984       0.997468     
  0.999998       0.999997       0.998819       0.997485       0.994761       0.994562       0.999998       0.999998       0.999998       0.999998     
  0.994661       0.999519       0.999143       0.999795       0.999982       0.997145       0.999998       0.999997       0.998727       0.997367     
  0.994510       0.994295       0.999998       0.999998       0.999998       0.999998       0.994749       0.999533       0.999206       0.999810     
  0.999982       0.997171       0.999998       0.999997       0.998738       0.997383       0.994547       0.994349       0.999997       0.999998     
  0.999998       0.999998       0.994295       0.999465       0.999145       0.999786       0.999981       0.997073       0.999998       0.999996     
  0.998600       0.997211       0.994172       0.993931       0.999998       0.999999       0.999999       0.999999       0.995439       0.999635     
  0.999365       0.999856       0.999985       0.997703       0.999999       0.999997       0.998937       0.997671       0.995121       0.994935     
  0.999997       0.999998       0.999998       0.999998       0.994095       0.999428       0.999005       0.999749       0.999976       0.996290     
  0.999998       0.999996       0.998577       0.997125       0.994049       0.993823     
 
  0.999996       0.999997       0.999997       0.999997       0.992925       0.999309       0.998671       0.999614       0.999961       0.994377     
  0.999996       0.999993       0.998111       0.996543       0.992818       0.992377       0.999996       0.999997       0.999997       0.999996     
  0.992465       0.999238       0.998721       0.999614       0.999958       0.994007       0.999996       0.999992       0.997935       0.996340     
  0.992393       0.991911       0.999996       0.999997       0.999997       0.999997       0.992817       0.999292       0.998825       0.999656     
  0.999956       0.993753       0.999996       0.999993       0.998053       0.996464       0.992671       0.992244       0.999995       0.999997     
  0.999997       0.999996       0.991881       0.999145       0.998719       0.999595       0.999956       0.993930       0.999995       0.999991     
  0.997719       0.996093       0.991876       0.991337       0.999997       0.999998       0.999998       0.999998       0.993966       0.999466     
  0.999047       0.999747       0.999967       0.995034       0.999998       0.999995       0.998434       0.996943       0.993640       0.993298     
  0.999994       0.999996       0.999996       0.999995       0.991730       0.999111       0.998565       0.999539       0.999942       0.991894     
  0.999995       0.999991       0.997717       0.996006       0.991780       0.991244     
 
  0.999993       0.999995       0.999995       0.999993       0.990408       0.998954       0.998220       0.999349       0.999911       0.988642     
  0.999993       0.999986       0.997162       0.995231       0.990239       0.989323       0.999992       0.999995       0.999995       0.999992     
  0.989688       0.998832       0.998249       0.999329       0.999905       0.988217       0.999991       0.999983       0.996865       0.994885     
  0.989554       0.988555       0.999993       0.999995       0.999995       0.999994       0.990479       0.998961       0.998403       0.999417     
  0.999898       0.987191       0.999993       0.999986       0.997171       0.995207       0.990236       0.989364       0.999991       0.999994     
  0.999994       0.999991       0.988922       0.998696       0.998245       0.999293       0.999904       0.988246       0.999989       0.999981     
  0.996571       0.994537       0.988873       0.987767       0.999995       0.999996       0.999997       0.999996       0.992271       0.999254     
  0.998688       0.999581       0.999927       0.990014       0.999996       0.999991       0.997855       0.996062       0.991911       0.991236     
  0.999990       0.999993       0.999993       0.999991       0.988726       0.998647       0.998083       0.999210       0.999858       0.983613     
  0.999990       0.999980       0.996505       0.994313       0.988570       0.987470     
 
  0.999987       0.999991       0.999991       0.999988       0.987559       0.998487       0.997771       0.998984       0.999815       0.980104     
  0.999988       0.999975       0.996009       0.993469       0.986970       0.985384       0.999986       0.999991       0.999991       0.999987     
  0.986528       0.998296       0.997771       0.998930       0.999805       0.979609       0.999985       0.999969       0.995555       0.992916     
  0.985934       0.984212       0.999987       0.999991       0.999991       0.999989       0.987928       0.998544       0.997976       0.999081     
  0.999787       0.977628       0.999990       0.999975       0.996137       0.993551       0.987209       0.985729       0.999984       0.999989     
  0.999990       0.999985       0.985524       0.998103       0.997759       0.998865       0.999803       0.979624       0.999981       0.999965     
  0.995154       0.992412       0.984996       0.983108       0.999991       0.999994       0.999994       0.999993       0.990377       0.998983     
  0.998319       0.999344       0.999856       0.982560       0.999995       0.999986       0.997189       0.994944       0.989793       0.988632     
  0.999982       0.999988       0.999988       0.999984       0.985376       0.998048       0.997599       0.998753       0.999699       0.972249     
  0.999984       0.999962       0.995026       0.991992       0.984444       0.982619     
 
  0.999977       0.999985       0.999985       0.999980       0.984070       0.997846       0.997303       0.998465       0.999623       0.967239     
  0.999981       0.999958       0.994495       0.990857       0.982329       0.979887       0.999975       0.999983       0.999983       0.999977     
  0.982692       0.997571       0.997269       0.998360       0.999605       0.966613       0.999976       0.999949       0.993860       0.990038     
  0.980839       0.978199       0.999977       0.999985       0.999985       0.999981       0.984803       0.997972       0.997525       0.998597     
  0.999586       0.964828       0.999985       0.999961       0.994823       0.991161       0.983007       0.980746       0.999972       0.999981     
  0.999981       0.999973       0.981258       0.997278       0.997236       0.998243       0.999598       0.966497       0.999970       0.999941     
  0.993253       0.989232       0.979370       0.976485       0.999984       0.999989       0.999989       0.999988       0.987952       0.998591     
  0.997923       0.998990       0.999734       0.972713       0.999992       0.999979       0.996335       0.993328       0.986826       0.984963     
  0.999967       0.999979       0.999978       0.999972       0.981295       0.997238       0.997086       0.998108       0.999410       0.957283     
  0.999975       0.999938       0.993143       0.988659       0.978706       0.976006     
 
  0.999960       0.999974       0.999973       0.999966       0.979669       0.996906       0.996805       0.997781       0.999298       0.950628     
  0.999970       0.999934       0.992501       0.987176       0.975946       0.972589       0.999956       0.999971       0.999970       0.999961     
  0.977929       0.996533       0.996736       0.997615       0.999259       0.949478       0.999962       0.999921       0.991669       0.986041     
  0.973923       0.970306       0.999961       0.999974       0.999973       0.999968       0.980813       0.997123       0.997036       0.997954     
  0.999297       0.950123       0.999976       0.999944       0.993183       0.987960       0.977464       0.974313       0.999952       0.999968     
  0.999966       0.999955       0.975982       0.996108       0.996668       0.997427       0.999239       0.949151       0.999954       0.999909     
  0.990819       0.984863       0.971785       0.967817       0.999973       0.999982       0.999981       0.999979       0.984803       0.997986     
  0.997495       0.998504       0.999560       0.961392       0.999987       0.999971       0.995261       0.991131       0.982868       0.980144     
  0.999944       0.999963       0.999962       0.999953       0.976120       0.996059       0.996520       0.997273       0.998978       0.939296     
  0.999960       0.999908       0.990769       0.984200       0.971128       0.967443     
 
  0.999934       0.999955       0.999952       0.999942       0.973922       0.995492       0.996228       0.996929       0.998800       0.929134     
  0.999951       0.999902       0.989866       0.982161       0.967383       0.962973       0.999928       0.999951       0.999948       0.999935     
  0.971766       0.994993       0.996106       0.996691       0.998730       0.927406       0.999940       0.999884       0.988820       0.980671     
  0.964759       0.959994       0.999936       0.999956       0.999953       0.999946       0.975574       0.995840       0.996455       0.997154     
  0.998919       0.932902       0.999959       0.999925       0.991180       0.983876       0.970424       0.966157       0.999920       0.999945     
  0.999942       0.999926       0.969306       0.994419       0.995988       0.996424       0.998698       0.927053       0.999928       0.999868     
  0.987771       0.979161       0.962019       0.956737       0.999956       0.999969       0.999967       0.999964       0.980608       0.997036     
  0.996990       0.997876       0.999333       0.948224       0.999975       0.999961       0.993918       0.988241       0.977704       0.973912     
  0.999909       0.999938       0.999934       0.999921       0.969404       0.994326       0.995827       0.996259       0.998389       0.917045     
  0.999935       0.999871       0.987807       0.978476       0.961468       0.956508     
 
  0.999896       0.999927       0.999920       0.999904       0.966464       0.993460       0.995515       0.995917       0.998115       0.901932     
  0.999914       0.999861       0.986504       0.975691       0.956444       0.950629       0.999886       0.999919       0.999912       0.999893     
  0.963828       0.992816       0.995302       0.995600       0.998032       0.900497       0.999899       0.999840       0.985288       0.973916     
  0.953307       0.946931       0.999901       0.999929       0.999922       0.999910       0.968753       0.993994       0.995719       0.996210     
  0.998452       0.912065       0.999926       0.999903       0.988770       0.978837       0.961745       0.955964       0.999874       0.999910     
  0.999902       0.999879       0.960825       0.992078       0.995118       0.995254       0.998004       0.900715       0.999882       0.999820     
  0.984104       0.972161       0.950089       0.942933       0.999932       0.999950       0.999945       0.999939       0.975020       0.995604     
  0.996356       0.997109       0.999046       0.932479       0.999952       0.999949       0.992235       0.984531       0.971077       0.965891     
  0.999858       0.999899       0.999889       0.999870       0.960794       0.991929       0.994927       0.995080       0.997652       0.890038     
  0.999886       0.999830       0.984232       0.971462       0.949666       0.942854     
 
  0.999842       0.999882       0.999869       0.999843       0.956963       0.990700       0.994611       0.994738       0.997245       0.868731     
  0.999849       0.999812       0.982388       0.967736       0.943107       0.935252       0.999827       0.999871       0.999856       0.999826     
  0.953782       0.989904       0.994251       0.994331       0.997201       0.869504       0.999827       0.999789       0.981123       0.965886     
  0.939720       0.930921       0.999851       0.999886       0.999873       0.999852       0.959973       0.991471       0.994754       0.995101     
  0.997892       0.887289       0.999863       0.999879       0.985881       0.972725       0.951219       0.943281       0.999809       0.999856     
  0.999840       0.999805       0.950180       0.988994       0.993968       0.993899       0.997194       0.870823       0.999801       0.999767     
  0.979854       0.963960       0.936135       0.926181       0.999897       0.999920       0.999910       0.999897       0.967697       0.993560     
  0.995534       0.996189       0.998695       0.913671       0.999908       0.999934       0.990145       0.979888       0.962773       0.955678     
  0.999786       0.999838       0.999820       0.999786       0.949883       0.988768       0.993739       0.993707       0.996776       0.858290     
  0.999797       0.999782       0.979995       0.963103       0.935632       0.926060     
 
  0.999767       0.999816       0.999791       0.999746       0.945042       0.987073       0.993467       0.993340       0.996205       0.830357     
  0.999743       0.999757       0.977522       0.958340       0.927467       0.916592       0.999746       0.999798       0.999770       0.999720     
  0.941207       0.986107       0.992888       0.992820       0.996262       0.835260       0.999710       0.999734       0.976334       0.956628     
  0.924093       0.911675       0.999781       0.999822       0.999797       0.999756       0.948725       0.988093       0.993486       0.993755     
  0.997224       0.858316       0.999759       0.999849       0.982378       0.965345       0.938515       0.927456       0.999720       0.999775     
  0.999744       0.999687       0.936857       0.984986       0.992450       0.992278       0.996296       0.838346       0.999670       0.999711     
  0.974992       0.954563       0.920164       0.906055       0.999848       0.999875       0.999857       0.999830       0.958294       0.990773     
  0.994459       0.995073       0.998273       0.891401       0.999833       0.999916       0.987594       0.974215       0.952637       0.942889     
  0.999686       0.999747       0.999712       0.999652       0.936042       0.984594       0.992186       0.992041       0.995751       0.822077     
  0.999649       0.999728       0.974954       0.953229       0.919112       0.905439     
 
  0.999665       0.999717       0.999673       0.999595       0.930263       0.982337       0.992056       0.991638       0.995037       0.788876     
  0.999581       0.999695       0.972004       0.947707       0.909899       0.894599       0.999635       0.999690       0.999642       0.999555     
  0.925611       0.981137       0.991176       0.990976       0.995214       0.798088       0.999533       0.999674       0.970894       0.946145     
  0.906533       0.888930       0.999684       0.999728       0.999683       0.999607       0.934498       0.983576       0.991858       0.992081     
  0.996426       0.824846       0.999598       0.999813       0.978154       0.956563       0.923503       0.908014       0.999597       0.999654     
  0.999600       0.999503       0.920252       0.979699       0.990507       0.990284       0.995279       0.802602       0.999471       0.999647     
  0.969368       0.943795       0.902030       0.882020       0.999779       0.999808       0.999776       0.999724       0.946456       0.987063     
  0.993078       0.993698       0.997761       0.865239       0.999719       0.999894       0.984534       0.967439       0.940618       0.927228     
  0.999548       0.999612       0.999551       0.999443       0.918610       0.978989       0.990211       0.989957       0.994563       0.781820     
  0.999424       0.999665       0.969001       0.941739       0.900066       0.880490     
 
  0.999528       0.999576       0.999504       0.999368       0.912145       0.976149       0.990355       0.989542       0.993815       0.747595     
  0.999352       0.999630       0.966027       0.936203       0.891018       0.869404       0.999486       0.999535       0.999456       0.999307     
  0.906423       0.974589       0.989072       0.988691       0.994051       0.758452       0.999280       0.999606       0.964744       0.934408     
  0.887126       0.862371       0.999552       0.999591       0.999518       0.999381       0.916719       0.977544       0.989806       0.989975     
  0.995474       0.786892       0.999368       0.999768       0.973095       0.946261       0.906112       0.884474       0.999431       0.999481     
  0.999393       0.999227       0.899752       0.972677       0.988067       0.987792       0.994091       0.762436       0.999189       0.999572     
  0.962796       0.931430       0.881584       0.853570       0.999686       0.999711       0.999658       0.999563       0.931760       0.982172     
  0.991333       0.991990       0.997140       0.834685       0.999556       0.999866       0.980895       0.959484       0.926699       0.908400     
  0.999361       0.999418       0.999318       0.999128       0.896995       0.971482       0.987752       0.987330       0.993188       0.737768     
  0.999102       0.999588       0.962058       0.928581       0.878611       0.850919     
 
  0.999353       0.999384       0.999273       0.999041       0.890396       0.968297       0.988319       0.986980       0.992627       0.709797     
  0.999040       0.999562       0.959826       0.924242       0.871525       0.841316       0.999293       0.999322       0.999201       0.998950     
  0.883260       0.966204       0.986544       0.985878       0.992787       0.717746       0.998938       0.999528       0.957876       0.921474     
  0.866085       0.831845       0.999380       0.999401       0.999289       0.999053       0.895014       0.969758       0.987283       0.987352     
  0.994367       0.745618       0.999057       0.999710       0.967147       0.934437       0.886483       0.856545       0.999215       0.999243     
  0.999109       0.998830       0.875013       0.963657       0.985081       0.984704       0.992734       0.719211       0.998806       0.999483     
  0.955261       0.917517       0.859081       0.820634       0.999563       0.999577       0.999495       0.999329       0.913789       0.975887     
  0.989177       0.989873       0.996383       0.799453       0.999335       0.999829       0.976519       0.950164       0.910670       0.885821     
  0.999119       0.999151       0.999000       0.998672       0.870903       0.961820       0.984775       0.984066       0.991621       0.691027     
  0.998665       0.999497       0.954123       0.913815       0.855040       0.816722     
 
  0.999134       0.999128       0.998966       0.998581       0.864489       0.958486       0.985945       0.983889       0.991515       0.676933     
  0.998646       0.999492       0.953495       0.911945       0.851659       0.810181       0.999050       0.999038       0.998862       0.998447     
  0.855546       0.955674       0.983559       0.982458       0.991479       0.678721       0.998505       0.999440       0.950358       0.907460     
  0.843644       0.797076       0.999160       0.999146       0.998984       0.998592       0.868833       0.959918       0.984204       0.984130     
  0.993127       0.702918       0.998663       0.999639       0.960304       0.921119       0.864783       0.823883       0.998942       0.998924     
  0.998730       0.998269       0.845521       0.952327       0.981447       0.980926       0.991238       0.674973       0.998322       0.999379     
  0.946809       0.902116       0.834733       0.783043       0.999406       0.999395       0.999276       0.998999       0.891903       0.967917     
  0.986538       0.987270       0.995487       0.760438       0.999055       0.999781       0.971244       0.939273       0.892271       0.858652     
  0.998814       0.998795       0.998576       0.998029       0.839801       0.949678       0.981212       0.980078       0.989905       0.643950     
  0.998112       0.999389       0.945259       0.897539       0.829614       0.777766     
 
  0.998865       0.998794       0.998570       0.997946       0.834397       0.946574       0.983228       0.980230       0.990499       0.649982     
  0.998193       0.999417       0.947187       0.899505       0.831847       0.776391       0.998749       0.998666       0.998423       0.997756     
  0.823172       0.942831       0.980132       0.978382       0.990161       0.642776       0.998007       0.999340       0.942253       0.892464     
  0.820071       0.758190       0.998887       0.998812       0.998587       0.997957       0.837998       0.947841       0.980493       0.980240     
  0.991773       0.660115       0.998209       0.999552       0.952570       0.906351       0.841239       0.786483       0.998605       0.998508     
  0.998240       0.997500       0.811092       0.938495       0.977081       0.976376       0.989641       0.631766       0.997765       0.999257     
  0.937416       0.885231       0.808625       0.740701       0.999209       0.999155       0.998989       0.998546       0.865873       0.958093     
  0.983372       0.984123       0.994465       0.719242       0.998733       0.999719       0.965060       0.926864       0.871751       0.826795     
  0.998438       0.998329       0.998029       0.997147       0.803635       0.934890       0.977008       0.975307       0.988109       0.599327     
  0.997476       0.999263       0.935621       0.879996       0.802791       0.734419     
 
  0.998544       0.998373       0.998074       0.997091       0.800595       0.932484       0.980094       0.976031       0.989541       0.627959     
  0.997712       0.999336       0.941050       0.887096       0.812542       0.740996       0.998388       0.998192       0.997869       0.996832     
  0.786512       0.927568       0.976257       0.973682       0.988819       0.609756       0.997480       0.999227       0.933611       0.876559     
  0.795638       0.715879       0.998558       0.998383       0.998084       0.997108       0.802800       0.933421       0.976109       0.975705     
  0.990357       0.619921       0.997729       0.999450       0.944114       0.890456       0.816467       0.745103       0.998198       0.997975     
  0.997621       0.996475       0.771970       0.922031       0.972007       0.971086       0.988020       0.593050       0.997175       0.999117     
  0.927179       0.867101       0.781147       0.694119       0.998970       0.998847       0.998625       0.997939       0.835848       0.946297     
  0.979660       0.980440       0.993341       0.678037       0.998392       0.999645       0.958044       0.913146       0.849600       0.790718     
  0.997986       0.997735       0.997339       0.995965       0.762888       0.917357       0.972134       0.969791       0.986273       0.558879     
  0.996802       0.999120       0.925387       0.861463       0.775076       0.687632     
 
  0.998160       0.997839       0.997453       0.995938       0.762637       0.915732       0.976372       0.971248       0.988589       0.609757     
  0.997249       0.999245       0.935027       0.874491       0.793474       0.703893       0.997955       0.997588       0.997172       0.995596     
  0.745094       0.909384       0.971793       0.968300       0.987458       0.580326       0.996970       0.999100       0.924388       0.859572     
  0.770148       0.669938       0.998161       0.997834       0.997448       0.995974       0.762697       0.916168       0.970909       0.970446     
  0.988935       0.584837       0.997266       0.999333       0.934967       0.873423       0.790466       0.699482       0.997710       0.997295     
  0.996840       0.995108       0.727686       0.902394       0.966116       0.964983       0.986402       0.559881       0.996603       0.998959     
  0.916033       0.847549       0.752112       0.643104       0.998681       0.998452       0.998163       0.997130       0.801279       0.932117     
  0.975302       0.976158       0.992186       0.640560       0.998063       0.999558       0.950282       0.898243       0.826038       0.750211     
  0.997444       0.996976       0.996470       0.994388       0.716981       0.896482       0.966397       0.963451       0.984408       0.523123     
  0.996152       0.998956       0.914368       0.841577       0.745943       0.636802     
 
  0.997711       0.997175       0.996687       0.994412       0.720961       0.896168       0.971929       0.965926       0.987650       0.596850     
  0.996841       0.999143       0.929197       0.861800       0.774777       0.665654       0.997445       0.996830       0.996307       0.993974     
  0.699503       0.888138       0.966607       0.962277       0.986122       0.556721       0.996517       0.998959       0.914790       0.841780     
  0.744071       0.621476       0.997692       0.997142       0.996656       0.994492       0.718148       0.895912       0.964725       0.964472     
  0.987507       0.554824       0.996854       0.999200       0.925096       0.855202       0.763266       0.650214       0.997134       0.996439     
  0.995869       0.993321       0.679005       0.879452       0.959355       0.958135       0.984775       0.531761       0.996093       0.998782     
  0.903994       0.826564       0.721646       0.588754       0.998339       0.997953       0.997587       0.996071       0.762479       0.915406     
  0.970152       0.971270       0.991040       0.608747       0.997771       0.999460       0.941886       0.882347       0.801452       0.705947     
  0.996805       0.996022       0.995390       0.992323       0.666574       0.872092       0.959644       0.956330       0.982533       0.492876     
  0.995574       0.998771       0.902560       0.820344       0.715485       0.582774     
 
  0.997188       0.996354       0.995752       0.992423       0.675619       0.873473       0.966406       0.959988       0.986692       0.589313     
  0.996482       0.999027       0.923486       0.848862       0.756195       0.626377       0.996849       0.995888       0.995244       0.991875     
  0.650247       0.863620       0.960599       0.955553       0.984795       0.538983       0.996117       0.998802       0.904726       0.823000     
  0.717177       0.570879       0.997142       0.996279       0.995679       0.992578       0.669644       0.872440       0.957772       0.957797     
  0.986054       0.529435       0.996490       0.999049       0.914383       0.835594       0.734662       0.597756       0.996461       0.995372     
  0.994674       0.991016       0.626579       0.852986       0.952205       0.950609       0.983109       0.508118       0.995638       0.998582     
  0.890988       0.803991       0.689669       0.532014       0.997938       0.997330       0.996876       0.994705       0.719782       0.895967     
  0.964464       0.965803       0.989890       0.581883       0.997512       0.999350       0.932783       0.865313       0.775717       0.658272     
  0.996058       0.994832       0.994060       0.989658       0.612499       0.844006       0.951907       0.948397       0.980639       0.468159     
  0.995062       0.998562       0.889938       0.797680       0.683693       0.526456     
 
  0.996577       0.995332       0.994605       0.989876       0.626031       0.847272       0.960155       0.953344       0.985635       0.584254     
  0.996152       0.998889       0.916923       0.834125       0.735397       0.583018       0.996155       0.994721       0.993945       0.989181     
  0.597587       0.835565       0.953380       0.947981       0.983362       0.523102       0.995745       0.998622       0.893770       0.802545     
  0.688617       0.518133       0.996500       0.995207       0.994483       0.990126       0.617566       0.845536       0.949543       0.950250     
  0.984518       0.506641       0.996150       0.998876       0.902667       0.814273       0.704342       0.542702       0.995675       0.994051     
  0.993212       0.988063       0.571097       0.822847       0.943739       0.942146       0.981324       0.486447       0.995211       0.998355     
  0.876872       0.779507       0.655951       0.473813       0.997468       0.996556       0.996004       0.992954       0.673372       0.873588     
  0.957852       0.959619       0.988692       0.558026       0.997271       0.999224       0.922850       0.846881       0.748573       0.607597     
  0.995188       0.993358       0.992434       0.986242       0.555418       0.812031       0.942071       0.939371       0.978676       0.447593     
  0.994585       0.998324       0.876400       0.773366       0.650450       0.468834     
 
  0.995873       0.994078       0.993218       0.986718       0.573410       0.818057       0.951286       0.945635       0.984441       0.579798     
  0.995817       0.998727       0.908364       0.816147       0.710209       0.533371       0.995363       0.993307       0.992392       0.985817     
  0.543045       0.804502       0.944811       0.939612       0.981784       0.507320       0.995368       0.998417       0.881744       0.780206     
  0.658218       0.464279       0.995766       0.993907       0.993053       0.987065       0.563439       0.815702       0.940323       0.941959     
  0.982857       0.484691       0.995805       0.998680       0.889874       0.791153       0.672334       0.486494       0.994779       0.992451     
  0.991467       0.984376       0.514343       0.789651       0.934203       0.932879       0.979389       0.465646       0.994777       0.998098     
  0.861550       0.753074       0.620583       0.415722       0.996932       0.995619       0.994961       0.990765       0.624456       0.848649     
  0.950660       0.952848       0.987449       0.537073       0.997026       0.999084       0.912194       0.827193       0.720327       0.555364     
  0.994196       0.991571       0.990490       0.981977       0.497264       0.776850       0.929585       0.929210       0.976605       0.429892     
  0.994101       0.998056       0.861928       0.747402       0.615943       0.411625     
 
  0.995062       0.992538       0.991546       0.982836       0.517968       0.785660       0.938664       0.936517       0.983089       0.575181     
  0.995456       0.998534       0.896925       0.793906       0.679352       0.476811       0.994466       0.991598       0.990544       0.981625     
  0.487485       0.770506       0.933325       0.930110       0.980057       0.492058       0.994964       0.998185       0.868505       0.755785     
  0.625845       0.410021       0.994935       0.992336       0.991349       0.983259       0.507958       0.782976       0.929683       0.932809     
  0.981065       0.463507       0.995435       0.998457       0.875886       0.766005       0.638461       0.429776       0.993767       0.990519     
  0.989389       0.979793       0.457102       0.753461       0.923298       0.922723       0.977321       0.446737       0.994312       0.997809     
  0.845052       0.724654       0.583740       0.358794       0.996325       0.994487       0.993722       0.988039       0.573503       0.821153     
  0.942433       0.945382       0.986184       0.520221       0.996764       0.998928       0.900855       0.806201       0.690967       0.502122     
  0.993073       0.989413       0.988177       0.976671       0.439044       0.738593       0.912233       0.917402       0.974396       0.414534     
  0.993583       0.997754       0.846333       0.719480       0.579956       0.355549     
 
  0.994148       0.990694       0.989572       0.978182       0.461777       0.750762       0.919709       0.925426       0.981580       0.570356     
  0.995062       0.998308       0.882519       0.767590       0.643452       0.416300       0.993466       0.989575       0.988388       0.976533     
  0.432808       0.734350       0.914349       0.918599       0.978205       0.478181       0.994529       0.997926       0.854143       0.729543     
  0.591991       0.357074       0.994013       0.990476       0.989362       0.978637       0.453117       0.748114       0.917676       0.922960     
  0.979163       0.443526       0.995036       0.998212       0.860847       0.739169       0.603346       0.374579       0.992645       0.988235     
  0.986968       0.974230       0.401528       0.715165       0.911088       0.911855       0.975110       0.428518       0.993810       0.997492     
  0.827463       0.694498       0.545961       0.304940       0.995651       0.993149       0.992277       0.984722       0.522159       0.791675     
  0.931596       0.937005       0.984893       0.506992       0.996482       0.998758       0.888871       0.784062       0.660775       0.449381     
  0.991817       0.986858       0.985478       0.970226       0.382974       0.698223       0.883027       0.902476       0.972020       0.400620     
  0.993023       0.997418       0.829685       0.689854       0.543036       0.302537     
 
  0.993108       0.988486       0.987248       0.972611       0.405732       0.713337       0.883708       0.909689       0.979879       0.565487     
  0.994626       0.998042       0.864717       0.736835       0.602467       0.353598       0.992334       0.987167       0.985860       0.970404     
  0.378970       0.695826       0.874237       0.901652       0.976196       0.466966       0.994050       0.997630       0.837529       0.700135     
  0.554999       0.304047       0.992991       0.988275       0.987044       0.973031       0.399495       0.711085       0.900601       0.911591     
  0.977188       0.426841       0.994604       0.997943       0.844812       0.710685       0.567215       0.321714       0.991402       0.985534     
  0.984145       0.967486       0.348304       0.674801       0.892185       0.899043       0.972762       0.412048       0.993267       0.997143     
  0.808812       0.662616       0.507500       0.254931       0.994904       0.991567       0.990594       0.980689       0.470806       0.760117     
  0.915547       0.927183       0.983537       0.495867       0.996177       0.998571       0.876123       0.760511       0.629544       0.397646     
  0.990413       0.983834       0.982329       0.962415       0.329636       0.655769       0.840329       0.883756       0.969461       0.388391     
  0.992416       0.997045       0.811966       0.658441       0.505319       0.253303     
 
  0.991933       0.985901       0.984564       0.966092       0.352047       0.674248       0.820966       0.886380       0.977941       0.560755     
  0.994144       0.997726       0.843747       0.702270       0.557880       0.292565       0.991038       0.984346       0.982939       0.963244     
  0.327362       0.655629       0.796068       0.874028       0.973902       0.457098       0.993519       0.997275       0.817496       0.666599     
  0.513978       0.251475       0.991868       0.985718       0.984388       0.966397       0.348701       0.672656       0.869951       0.896853     
  0.975136       0.413431       0.994142       0.997650       0.827945       0.680914       0.530705       0.272748       0.990038       0.982400     
  0.980912       0.959507       0.298948       0.633234       0.857873       0.882352       0.970283       0.397929       0.992686       0.996765     
  0.789359       0.629535       0.469183       0.210140       0.994084       0.989730       0.988668       0.975904       0.420900       0.727054     
  0.889616       0.914868       0.982076       0.484778       0.995850       0.998368       0.862634       0.735659       0.597571       0.348351     
  0.988852       0.980318       0.978715       0.953201       0.280372       0.612152       0.780176       0.859997       0.966696       0.378060     
  0.991760       0.996629       0.792916       0.625189       0.466910       0.208501     
 
  0.990520       0.982870       0.981459       0.958470       0.301232       0.633467       0.714973       0.847782       0.975413       0.556120     
  0.993574       0.997306       0.818982       0.663405       0.509870       0.234587       0.989420       0.981037       0.979558       0.954881     
  0.278666       0.613782       0.661804       0.825740       0.970808       0.448298       0.992873       0.996775       0.793317       0.628455     
  0.469289       0.201007       0.990618       0.982739       0.981334       0.958559       0.300945       0.632826       0.818686       0.876318     
  0.972921       0.402953       0.993634       0.997321       0.809734       0.649253       0.493231       0.227339       0.988513       0.978755     
  0.977200       0.950073       0.253631       0.590537       0.795335       0.857700       0.967567       0.386915       0.992046       0.996338     
  0.768862       0.595010       0.430903       0.170330       0.993181       0.987594       0.986459       0.970222       0.372844       0.692481     
  0.853966       0.899715       0.980497       0.474460       0.995495       0.998143       0.848324       0.709361       0.564781       0.301697     
  0.987085       0.976202       0.974540       0.942409       0.234991       0.567364       0.700027       0.828915       0.963609       0.370109     
  0.991031       0.996144       0.771053       0.588531       0.426203       0.166791     
 
  0.988835       0.979397       0.977941       0.949776       0.255033       0.592093       0.581877       0.795003       0.972165       0.551622     
  0.992898       0.996746       0.790758       0.621124       0.460395       0.182893       0.987460       0.977243       0.975725       0.945348     
  0.234612       0.571452       0.516568       0.765295       0.966927       0.440712       0.992092       0.996092       0.765457       0.586752     
  0.422988       0.155953       0.989246       0.979330       0.977882       0.949578       0.257232       0.592502       0.751234       0.850565     
  0.970519       0.394893       0.993079       0.996954       0.789552       0.615331       0.454479       0.185733       0.986796       0.974591     
  0.973006       0.939270       0.213034       0.547700       0.691027       0.820049       0.964446       0.378403       0.991340       0.995849     
  0.746280       0.558306       0.391982       0.134998       0.992207       0.985159       0.983970       0.963651       0.327919       0.657182     
  0.813631       0.883057       0.978848       0.466003       0.995114       0.997901       0.833284       0.681947       0.531636       0.258694     
  0.985042       0.971482       0.969804       0.930141       0.194518       0.522551       0.591908       0.785778       0.959971       0.363995     
  0.990198       0.995542       0.745674       0.548339       0.383610       0.129177     
 
  0.986666       0.975390       0.973927       0.939815       0.213307       0.549989       0.426922       0.722999       0.967708       0.547062     
  0.992003       0.995865       0.758109       0.574782       0.409620       0.137693       0.985015       0.972869       0.971352       0.934435     
  0.195039       0.528533       0.372808       0.693066       0.962006       0.433525       0.991082       0.995079       0.733330       0.541146     
  0.375411       0.116716       0.987697       0.975401       0.973946       0.939286       0.217184       0.551484       0.663868       0.816492     
  0.967762       0.388448       0.992455       0.996515       0.766191       0.577944       0.413467       0.147324       0.984636       0.969786     
  0.968218       0.926942       0.176440       0.504393       0.527121       0.755411       0.960172       0.371085       0.990465       0.995133     
  0.718982       0.517053       0.350565       0.102794       0.991142       0.982359       0.981143       0.956052       0.285725       0.620919     
  0.766796       0.863905       0.977108       0.459998       0.994698       0.997631       0.816734       0.652484       0.497047       0.218235     
  0.982547       0.966038       0.964398       0.916145       0.158719       0.477671       0.450466       0.723354       0.955342       0.358846     
  0.989191       0.994712       0.715951       0.504136       0.339477       0.961543E-001
 
  0.983815       0.970869       0.969435       0.928679       0.176993       0.508224       0.279044       0.637234       0.961752       0.542411     
  0.990723       0.994402       0.721667       0.525810       0.359907       0.100618       0.982001       0.967939       0.966466       0.922249     
  0.160814       0.486196       0.247464       0.614339       0.955977       0.426807       0.989743       0.993577       0.697868       0.493310     
  0.328907       0.847445E-001  0.985930       0.970976       0.969555       0.927782       0.181855       0.510892       0.558214       0.772133     
  0.964500       0.383116       0.991738       0.995967       0.740094       0.538158       0.372015       0.113921       0.981778       0.964362     
  0.962859       0.913215       0.144751       0.461814       0.350667       0.669515       0.954329       0.365119       0.989260       0.993933     
  0.687148       0.472428       0.308758       0.755150E-001  0.989945       0.979203       0.977988       0.947518       0.247148       0.584520     
  0.686182       0.833386       0.975053       0.455665       0.994232       0.997309       0.798097       0.620758       0.460978       0.180723     
  0.979457       0.959904       0.958359       0.900578       0.128275       0.434002       0.306845       0.646805       0.949523       0.354553     
  0.987918       0.993504       0.682532       0.457483       0.296059       0.691422E-001
 
  0.980195       0.965788       0.964425       0.916301       0.145733       0.467033       0.156953       0.543141       0.954181       0.537533     
  0.988947       0.992176       0.681645       0.474870       0.312144       0.712295E-001  0.978391       0.962408       0.961025       0.908721     
  0.131551       0.444715       0.147100       0.531678       0.948776       0.420378       0.988026       0.991503       0.659382       0.444027     
  0.284411       0.595891E-001  0.983849       0.966010       0.964670       0.914992       0.151055       0.470962       0.435251       0.714893     
  0.960511       0.378444       0.990881       0.995233       0.711163       0.496234       0.330888       0.857177E-001  0.978070       0.958266     
  0.956881       0.898013       0.117682       0.420240       0.199319       0.571765       0.946815       0.359742       0.987584       0.992018     
  0.651098       0.425382       0.267784       0.534591E-001  0.988551       0.975654       0.974474       0.938011       0.212127       0.548106     
  0.577519       0.789875       0.972495       0.452035       0.993694       0.996900       0.776679       0.586263       0.423269       0.146290     
  0.975769       0.953024       0.951636       0.883371       0.102724       0.391850       0.190206       0.566001       0.942663       0.350611     
  0.986316       0.991816       0.645928       0.409365       0.254407       0.479753E-001
 
  0.975550       0.960105       0.958858       0.902669       0.119207       0.426771       0.740490E-001  0.444463       0.944544       0.532233     
  0.986294       0.988620       0.638023       0.422760       0.267188       0.488231E-001  0.973882       0.956238       0.954995       0.893848     
  0.106889       0.404435       0.744648E-001  0.443128       0.939773       0.414109       0.985580       0.988329       0.617652       0.393987     
  0.242697       0.405386E-001  0.981365       0.960487       0.959276       0.900920       0.124618       0.432097       0.305429       0.644734     
  0.955587       0.374308       0.989832       0.994232       0.679564       0.452796       0.291024       0.627389E-001  0.973372       0.951463     
  0.950252       0.881346       0.949329E-001  0.380095       0.950302E-001  0.470604       0.937501       0.354460       0.985184       0.989003     
  0.611355       0.377119       0.228806       0.365077E-001  0.986988       0.971700       0.970591       0.927522       0.180848       0.512059     
  0.468908       0.741477       0.969604       0.449130       0.993081       0.996406       0.752881       0.549631       0.384911       0.115826     
  0.971280       0.945366       0.944201       0.864554       0.816334E-001  0.351619       0.101822       0.480108       0.934341       0.346722     
  0.984186       0.989342       0.606294       0.360735       0.215441       0.321109E-001
 
  0.969636       0.953833       0.952742       0.887894       0.971295E-001  0.388038       0.281427E-001  0.347852       0.932531       0.526400     
  0.982429       0.983251       0.591570       0.370993       0.226079       0.325580E-001  0.968477       0.949464       0.948409       0.877775     
  0.865131E-001  0.366020       0.327563E-001  0.358769       0.929174       0.408005       0.982357       0.983991       0.574090       0.344926     
  0.204874       0.268704E-001  0.978288       0.954427       0.953394       0.885693       0.102370       0.394837       0.189240       0.564364     
  0.949368       0.370537       0.988415       0.992690       0.645553       0.408730       0.253470       0.448150E-001  0.967429       0.943973     
  0.942990       0.863381       0.762073E-001  0.341955       0.374478E-001  0.371656       0.926035       0.349192       0.981712       0.984365     
  0.568558       0.329106       0.192902       0.241673E-001  0.985195       0.967359       0.966356       0.916135       0.153486       0.476909     
  0.361513       0.686351       0.966168       0.446607       0.992344       0.995748       0.726908       0.511529       0.347061       0.898909E-001
  0.965895       0.936974       0.936094       0.844336       0.645965E-001  0.313897       0.473097E-001  0.394470       0.924490       0.342827     
  0.981372       0.985842       0.564609       0.313146       0.180203       0.208808E-001
 
  0.962255       0.946947       0.946050       0.872035       0.789186E-001  0.351099       0.840198E-002  0.258459       0.917798       0.519860     
  0.976784       0.975286       0.542564       0.320537       0.189047       0.211875E-001  0.962062       0.942082       0.941262       0.860583     
  0.698483E-001  0.329742       0.120905E-001  0.279934       0.916745       0.401933       0.978038       0.978045       0.529127       0.297808     
  0.171188       0.174338E-001  0.974673       0.947845       0.947037       0.869400       0.838604E-001  0.359496       0.105770       0.484098     
  0.942150       0.367005       0.986609       0.990567       0.610000       0.365179       0.218895       0.313595E-001  0.960041       0.935781     
  0.935075       0.844217       0.609723E-001  0.306077       0.116695E-001  0.279683       0.912126       0.343900       0.976663       0.977387     
  0.523115       0.282430       0.160492       0.155672E-001  0.983108       0.962637       0.961778       0.903904       0.129838       0.442935     
  0.258815       0.623919       0.961973       0.444152       0.991438       0.994851       0.698833       0.472408       0.310446       0.684274E-001
  0.959526       0.927854       0.927319       0.822858       0.509950E-001  0.278899       0.185542E-001  0.313577       0.912985       0.338785     
  0.977619       0.980948       0.521404       0.267641       0.148967       0.132575E-001
 
  0.953272       0.939427       0.938760       0.855176       0.640173E-001  0.316206       0.227945E-002  0.182133       0.900158       0.512391     
  0.968717       0.963919       0.491614       0.272405       0.156171       0.135191E-001  0.954265       0.934082       0.933539       0.842371     
  0.563331E-001  0.295770       0.381933E-002  0.207473       0.901769       0.395629       0.971998       0.969626       0.482740       0.253218     
  0.141556       0.111230E-001  0.970443       0.940758       0.940223       0.852158       0.686223E-001  0.326300       0.531050E-001  0.405681     
  0.933751       0.363650       0.984266       0.987641       0.573135       0.322817       0.187563       0.215614E-001  0.951066       0.926886     
  0.926503       0.823965       0.487206E-001  0.272716       0.305252E-002  0.200015       0.895587       0.338439       0.969499       0.967351     
  0.475857       0.238266       0.131864       0.983503E-002  0.980651       0.957548       0.956868       0.890903       0.109631       0.410389     
  0.169050       0.555404       0.956843       0.441737       0.990274       0.993575       0.668825       0.432818       0.275699       0.511674E-001
  0.952055       0.918037       0.917904       0.800307       0.402462E-001  0.246774       0.625508E-002  0.239736       0.899607       0.334505     
  0.972689       0.974309       0.477222       0.225107       0.121767       0.827312E-002
 
  0.943141       0.931317       0.930913       0.837442       0.519398E-001  0.283717       0.670020E-003  0.124110       0.880429       0.504030     
  0.958246       0.949324       0.440510       0.227974       0.127559       0.851680E-002  0.944704       0.925428       0.925197       0.823247     
  0.454257E-001  0.264155       0.107259E-002  0.144093       0.883424       0.388741       0.963096       0.957193       0.434575       0.211483     
  0.115575       0.699559E-002  0.965534       0.933192       0.932974       0.834117       0.561694E-001  0.295375       0.230970E-001  0.330999     
  0.924114       0.360394       0.981228       0.983689       0.535345       0.282266       0.159509       0.146127E-001  0.940571       0.917287     
  0.917270       0.802774       0.389366E-001  0.242010       0.704220E-003  0.136413       0.876465       0.332575       0.959553       0.953443     
  0.427713       0.197517       0.106951       0.613347E-002  0.977808       0.952112       0.951647       0.877220       0.925355E-001  0.379486     
  0.100234       0.485728       0.950859       0.439318       0.988793       0.991824       0.637487       0.393581       0.243391       0.376974E-001
  0.943352       0.907537       0.907857       0.776893       0.317957E-001  0.217531       0.189027E-002  0.175108       0.884095       0.329852     
  0.966009       0.965166       0.432393       0.186097       0.983234E-001  0.510022E-002
 
  0.931125       0.922559       0.922439       0.818992       0.421669E-001  0.253572       0.128526E-003  0.788476E-001  0.857095       0.494239     
  0.943646       0.929259       0.388618       0.187290       0.102726       0.529284E-002  0.933244       0.916140       0.916246       0.803375     
  0.367047E-001  0.235135       0.241889E-003  0.936473E-001  0.861649       0.381092       0.950535       0.939819       0.385767       0.173560     
  0.931923E-001  0.436683E-002  0.959846       0.925214       0.925350       0.815444       0.461325E-001  0.266981       0.879613E-002  0.261960     
  0.913061       0.357064       0.977255       0.978359       0.497216       0.244417       0.134914       0.986584E-002  0.928722       0.907063     
  0.907446       0.780831       0.312353E-001  0.214270       0.182430E-003  0.899252E-001  0.855204       0.326246       0.946629       0.935544     
  0.380383       0.161284       0.858382E-001  0.382198E-002  0.974616       0.946385       0.946167       0.862977       0.782734E-001  0.350568     
  0.552396E-001  0.419124       0.944225       0.436895       0.986961       0.989548       0.605852       0.355864       0.214184       0.276045E-001
  0.933472       0.896469       0.897281       0.752878       0.252370E-001  0.191364       0.563259E-003  0.123511       0.866782       0.324800     
  0.957539       0.953536       0.388420       0.151637       0.786707E-001  0.314820E-002
 
  0.916002       0.912895       0.913063       0.799734       0.342484E-001  0.225495       0.128526E-003  0.449109E-001  0.826904       0.481534     
  0.920505       0.897943       0.333419       0.149419       0.807006E-001  0.321408E-002  0.919927       0.906202       0.906665       0.782913     
  0.297274E-001  0.208637       0.184417E-003  0.572761E-001  0.836075       0.372433       0.933091       0.915964       0.336756       0.139670     
  0.740055E-001  0.270199E-002  0.953314       0.916860       0.917382       0.796335       0.380431E-001  0.241035       0.297845E-002  0.201006     
  0.900518       0.353574       0.972075       0.971290       0.459052       0.209623       0.113496       0.665104E-002  0.915617       0.896242     
  0.897052       0.758373       0.251541E-001  0.189305       0.182430E-003  0.571745E-001  0.831490       0.319328       0.929977       0.912697     
  0.334058       0.129532       0.680346E-001  0.237315E-002  0.971123       0.940410       0.940469       0.848308       0.664208E-001  0.323693     
  0.283122E-001  0.358042       0.937137       0.434547       0.984815       0.986812       0.574610       0.320317       0.188148       0.201700E-001
  0.922434       0.884878       0.886213       0.728524       0.201292E-001  0.168049       0.293773E-003  0.836865E-001  0.847314       0.319222     
  0.946624       0.938538       0.345350       0.121659       0.622848E-001  0.194535E-002
 
  0.897219       0.901998       0.902441       0.779566       0.278434E-001  0.199495       0.128526E-003  0.231733E-001  0.787915       0.464271     
  0.883463       0.848788       0.274621       0.114407       0.610084E-001  0.187998E-002  0.904521       0.895548       0.896370       0.762008     
  0.241571E-001  0.184648       0.910815E-004  0.331798E-001  0.805826       0.362138       0.908403       0.882711       0.287608       0.109809     
  0.575919E-001  0.164964E-002  0.946232       0.908247       0.909180       0.777043       0.315736E-001  0.217678       0.108309E-002  0.152046     
  0.887157       0.349933       0.965823       0.962678       0.422320       0.178709       0.952616E-001  0.452040E-002  0.901265       0.884881     
  0.886133       0.735674       0.203648E-001  0.167081       0.822233E-004  0.351262E-001  0.805163       0.311577       0.908713       0.883882     
  0.289366       0.102334       0.532066E-001  0.146891E-002  0.967481       0.934269       0.934630       0.833405       0.566544E-001  0.299044     
  0.148906E-001  0.306034       0.929962       0.432272       0.982464       0.983744       0.544671       0.287674       0.165370       0.148103E-001
  0.910210       0.872859       0.874735       0.704159       0.161541E-001  0.147491       0.130648E-003  0.545683E-001  0.825534       0.312965     
  0.932519       0.919244       0.303758       0.962141E-001  0.488009E-001  0.120592E-002
 
  0.875299       0.889710       0.890409       0.758517       0.226952E-001  0.175799       0.128526E-003  0.108235E-001  0.740751       0.441869     
  0.830473       0.780229       0.216103       0.836264E-001  0.440831E-001  0.105305E-002  0.887505       0.884272       0.885451       0.740940     
  0.197268E-001  0.163250       0.910815E-004  0.182666E-001  0.771911       0.350288       0.876516       0.840509       0.240631       0.844893E-001
  0.439611E-001  0.995784E-003  0.938819       0.899499       0.900861       0.757847       0.264222E-001  0.196924       0.435232E-003  0.114448     
  0.873432       0.346217       0.958693       0.952842       0.388018       0.151970       0.800125E-001  0.311670E-002  0.886253       0.873182     
  0.874882       0.713118       0.166052E-001  0.147599       0.822233E-004  0.213623E-001  0.777548       0.303265       0.883809       0.850536     
  0.248141       0.798715E-001  0.412051E-001  0.911983E-003  0.963758       0.928045       0.928726       0.818486       0.486525E-001  0.276683     
  0.788497E-002  0.261838       0.922752       0.430060       0.979906       0.980374       0.516406       0.258219       0.145666       0.109798E-001
  0.897293       0.860620       0.863044       0.680178       0.130646E-001  0.129625       0.130648E-003  0.349055E-001  0.802579       0.306252     
  0.915920       0.896642       0.265200       0.753386E-001  0.379789E-001  0.754254E-003
 
  0.851375       0.876244       0.877179       0.736962       0.185794E-001  0.154605       0.128526E-003  0.482487E-002  0.688154       0.415258     
  0.764612       0.697419       0.162916       0.584547E-001  0.304802E-001  0.566314E-003  0.869179       0.872506       0.874027       0.719999     
  0.162114E-001  0.144365       0.910815E-004  0.978192E-002  0.734874       0.336929       0.837730       0.790104       0.197303       0.637144E-001
  0.329445E-001  0.594935E-003  0.931328       0.890760       0.892558       0.739038       0.223266E-001  0.178694       0.231605E-003  0.865676E-001
  0.859784       0.342459       0.950888       0.942063       0.356551       0.129211       0.673696E-001  0.218624E-002  0.870898       0.861349     
  0.863495       0.691063       0.136564E-001  0.130696       0.822233E-004  0.131337E-001  0.749149       0.294547       0.856079       0.813888     
  0.211160       0.618370E-001  0.317111E-001  0.569649E-003  0.960092       0.921834       0.922845       0.803771       0.421256E-001  0.256636     
  0.425160E-002  0.224993       0.915767       0.427928       0.977206       0.976789       0.490120       0.231974       0.128750       0.825063E-002
  0.884016       0.848380       0.851345       0.656958       0.106605E-001  0.114255       0.130648E-003  0.224491E-001  0.779042       0.299277     
  0.897558       0.871823       0.230516       0.587052E-001  0.294812E-001  0.477252E-003
 
  0.826919       0.862007       0.863164       0.715309       0.152811E-001  0.135899       0.192875E-021  0.210139E-002  0.633942       0.386491     
  0.692718       0.610144       0.118996       0.394548E-001  0.203647E-001  0.294723E-003  0.849563       0.860097       0.861943       0.699100     
  0.133949E-001  0.127654       0.664772E-009  0.511315E-002  0.694209       0.321606       0.790363       0.729976       0.157567       0.467665E-001
  0.240529E-001  0.347219E-003  0.923755       0.882057       0.884296       0.720685       0.190364E-001  0.162647       0.117012E-003  0.655444E-001
  0.846045       0.338602       0.942384       0.930347       0.327608       0.109871       0.568595E-001  0.155753E-002  0.855102       0.849305     
  0.851888       0.669494       0.113155E-001  0.115960       0.299410E-004  0.807939E-002  0.719261       0.285110       0.824178       0.772521     
  0.177665       0.473069E-001  0.241482E-001  0.354741E-003  0.956503       0.915676       0.917027       0.789338       0.367646E-001  0.238654     
  0.234445E-002  0.194172       0.909039       0.425892       0.974583       0.973259       0.465817       0.208698       0.114228       0.628868E-002
  0.870251       0.836059       0.839553       0.634467       0.876535E-002  0.100963       0.126929E-003  0.143191E-001  0.754069       0.291745     
  0.875738       0.842803       0.198686       0.453364E-001  0.227172E-001  0.302203E-003
 
  0.803682       0.847848       0.849215       0.694490       0.126956E-001  0.119980       0.192875E-021  0.909436E-003  0.582936       0.358469     
  0.623571       0.529389       0.863523E-001  0.264027E-001  0.135154E-001  0.153986E-003  0.830190       0.847639       0.849789       0.678964     
  0.111824E-001  0.113363       0.140393E-011  0.270849E-002  0.653828       0.305753       0.740095       0.667745       0.124582       0.339842E-001
  0.174071E-001  0.202731E-003  0.916413       0.873636       0.876306       0.703260       0.164232E-001  0.148822       0.538889E-004  0.504781E-001
  0.832882       0.334790       0.933645       0.918349       0.301894       0.938920E-001  0.483142E-001  0.113434E-002  0.839956       0.837569     
  0.840571       0.649086       0.948592E-002  0.103485       0.299410E-004  0.513454E-002  0.690591       0.275810       0.791923       0.731428     
  0.149603       0.362644E-001  0.184523E-001  0.224191E-003  0.953077       0.909721       0.911409       0.775538       0.324233E-001  0.222859     
  0.135962E-002  0.169619       0.902726       0.423932       0.971953       0.969725       0.443993       0.188589       0.102012       0.489399E-002
  0.857103       0.824170       0.828170       0.613366       0.729360E-002  0.897985E-001  0.126929E-003  0.951448E-002  0.730370       0.284448     
  0.853904       0.814134       0.171817       0.351919E-001  0.176187E-001  0.194798E-003
 
  0.781521       0.833835       0.835393       0.674638       0.106591E-001  0.106440       0.192875E-021  0.357755E-003  0.534673       0.331184     
  0.557234       0.454925       0.621055E-001  0.174919E-001  0.889547E-002  0.807424E-004  0.811340       0.835280       0.837711       0.659797     
  0.943910E-002  0.101201       0.140393E-011  0.140528E-002  0.614278       0.289640       0.688279       0.605401       0.978467E-001  0.245479E-001
  0.125375E-001  0.119104E-003  0.909310       0.865594       0.868677       0.686943       0.143384E-001  0.136961       0.201558E-004  0.393343E-001
  0.820201       0.331048       0.924658       0.906049       0.279007       0.807262E-001  0.413657E-001  0.844022E-003  0.825357       0.826199     
  0.829592       0.629967       0.804690E-002  0.929291E-001  0.299410E-004  0.328584E-002  0.662745       0.266552       0.758999       0.690353     
  0.126073       0.278930E-001  0.141653E-001  0.143800E-003  0.949870       0.904054       0.906069       0.762516       0.289063E-001  0.209101     
  0.800714E-003  0.149945       0.896908       0.422112       0.969355       0.966228       0.424702       0.171451       0.918356E-001  0.389695E-002
  0.844692       0.812841       0.817316       0.593824       0.614423E-002  0.804472E-001  0.126929E-003  0.647425E-002  0.708077       0.277460     
  0.832529       0.786584       0.149497       0.275831E-001  0.138130E-001  0.128210E-003
 
  0.759018       0.819402       0.821118       0.655333       0.902347E-002  0.946529E-001  0.192875E-021  0.118908E-003  0.485502       0.302624     
  0.488675       0.381168       0.431082E-001  0.111764E-001  0.565180E-002  0.412134E-004  0.792785       0.823062       0.825744       0.641669     
  0.805404E-002  0.908050E-001  0.140393E-011  0.693148E-003  0.574930       0.273182       0.634819       0.542716       0.757727E-001  0.175260E-001
  0.893517E-002  0.697222E-004  0.902471       0.857992       0.861466       0.671823       0.126638E-001  0.126803       0.100595E-004  0.311159E-001
  0.808030       0.327404       0.915521       0.893616       0.258757       0.699151E-001  0.357194E-001  0.641402E-003  0.810809       0.815165     
  0.818914       0.612145       0.690318E-002  0.839290E-001  0.299410E-004  0.205181E-002  0.634394       0.256979       0.723749       0.647050     
  0.105401       0.213717E-001  0.108450E-001  0.925450E-004  0.947023       0.898733       0.901065       0.750363       0.260491E-001  0.197203     
  0.533574E-003  0.134782       0.891952       0.420558       0.967210       0.963359       0.408267       0.157093       0.834567E-001  0.317831E-002
  0.832420       0.802060       0.806969       0.575834       0.523818E-002  0.725561E-001  0.126929E-003  0.434316E-002  0.685597       0.270371     
  0.809611       0.757275       0.129747       0.216818E-001  0.108728E-001  0.852134E-004
 
  0.739356       0.806260       0.808121       0.638032       0.776719E-002  0.850829E-001  0.192875E-021  0.350810E-004  0.444031       0.278194     
  0.432104       0.322964       0.307332E-001  0.735746E-002  0.370688E-002  0.222420E-004  0.775563       0.811505       0.814406       0.625109     
  0.697458E-002  0.821862E-001  0.140393E-011  0.339957E-003  0.538524       0.257540       0.584255       0.485137       0.588970E-001  0.126046E-001
  0.642100E-002  0.418560E-004  0.896167       0.851030       0.854861       0.658218       0.113383E-001  0.118309       0.593329E-005  0.251308E-001
  0.796833       0.323980       0.906673       0.881626       0.241359       0.612391E-001  0.312225E-001  0.500360E-003  0.797272       0.804884     
  0.808948       0.596061       0.601049E-002  0.764798E-001  0.299410E-004  0.129401E-002  0.607818       0.247811       0.689547       0.605841     
  0.886067E-001  0.165573E-001  0.840333E-002  0.610788E-004  0.944515       0.893881       0.896506       0.739352       0.237608E-001  0.187134     
  0.380792E-003  0.123064       0.887691       0.419206       0.965328       0.960850       0.394372       0.145235       0.766406E-001  0.265895E-002
  0.821185       0.792181       0.797480       0.559774       0.453616E-002  0.660868E-001  0.126929E-003  0.300657E-002  0.664957       0.263753     
  0.787769       0.729698       0.113609       0.173179E-001  0.870255E-002  0.582877E-004
 
  0.721882       0.794255       0.796239       0.622635       0.680033E-002  0.773095E-001  0.192875E-021  0.105966E-004  0.408098       0.256710     
  0.383860       0.275366       0.223327E-001  0.496067E-002  0.249284E-002  0.126088E-004  0.760149       0.800943       0.804034       0.610405     
  0.614173E-002  0.751768E-001  0.140393E-011  0.173295E-003  0.506185       0.243337       0.538852       0.434887       0.464002E-001  0.923981E-002
  0.470666E-002  0.261753E-004  0.890528       0.844828       0.848976       0.646280       0.102987E-001  0.111330       0.379680E-005  0.208136E-001
  0.786835       0.320849       0.898447       0.870523       0.226743       0.543825E-001  0.276890E-001  0.401788E-003  0.785105       0.795599     
  0.799937       0.581919       0.532021E-002  0.704246E-001  0.299410E-004  0.832906E-003  0.583830       0.239363       0.657883       0.568357     
  0.753180E-001  0.130645E-001  0.663641E-002  0.417877E-004  0.942362       0.889572       0.892462       0.729632       0.219465E-001  0.178765     
  0.288515E-003  0.114003       0.884094       0.418041       0.963729       0.958717       0.382800       0.135578       0.711586E-001  0.228135E-002
  0.811204       0.783385       0.789022       0.545780       0.399683E-002  0.608709E-001  0.126929E-003  0.213418E-002  0.646565       0.257756     
  0.767662       0.704589       0.100662       0.141215E-001  0.711435E-002  0.413557E-004
 
  0.706684       0.783585       0.785673       0.609242       0.605992E-002  0.710756E-001  0.192875E-021  0.392742E-005  0.377728       0.238358     
  0.343886       0.237456       0.166789E-001  0.345976E-002  0.173577E-002  0.758235E-005  0.746689       0.791553       0.794804       0.597642     
  0.550237E-002  0.695475E-001  0.140393E-011  0.966403E-004  0.478194       0.230865       0.499434       0.392466       0.372949E-001  0.695786E-002
  0.354582E-002  0.172051E-004  0.885624       0.839432       0.843856       0.636020       0.948818E-002  0.105673       0.258188E-005  0.176966E-001
  0.778163       0.318104       0.891078       0.860625       0.214705       0.490213E-001  0.249377E-001  0.332355E-003  0.774485       0.787435     
  0.792006       0.569752       0.478925E-002  0.655656E-001  0.299410E-004  0.556276E-003  0.562838       0.231869       0.629716       0.535595     
  0.650269E-001  0.105555E-001  0.536884E-002  0.298491E-004  0.940543       0.885831       0.888954       0.721233       0.205184E-001  0.171909     
  0.229773E-003  0.106953       0.881078       0.417052       0.962365       0.956902       0.373276       0.127791       0.667831E-001  0.200444E-002
  0.802580       0.775739       0.781668       0.533832       0.358407E-002  0.567137E-001  0.126929E-003  0.157009E-002  0.630667       0.252538     
  0.749898       0.682653       0.904741E-001  0.117934E-001  0.595762E-002  0.305951E-004
 
  0.694184       0.774700       0.776869       0.598310       0.551489E-002  0.663163E-001  0.192875E-021  0.219652E-005  0.353577       0.223618     
  0.312682       0.208893       0.130128E-001  0.254584E-002  0.127582E-002  0.495496E-005  0.735588       0.783730       0.787107       0.587243     
  0.503065E-002  0.652424E-001  0.140393E-011  0.644426E-004  0.455518       0.220616       0.467509       0.358947       0.309584E-001  0.546599E-002
  0.278708E-002  0.121255E-004  0.881629       0.835032       0.839681       0.627743       0.888224E-002  0.101313       0.188754E-005  0.155299E-001
  0.771133       0.315850       0.884964       0.852446       0.205351       0.450289E-001  0.228950E-001  0.284932E-003  0.765758       0.780706     
  0.785463       0.559922       0.439689E-002  0.618513E-001  0.299410E-004  0.398491E-003  0.545672       0.225670       0.606423       0.508896     
  0.574460E-001  0.882304E-002  0.449401E-002  0.225895E-004  0.939091       0.882781       0.886094       0.714422       0.194424E-001  0.166575     
  0.192858E-003  0.101750       0.878714       0.416276       0.961296       0.955484       0.365860       0.121829       0.634580E-001  0.180797E-002
  0.795831       0.769577       0.775742       0.524291       0.328156E-002  0.535760E-001  0.126929E-003  0.122782E-002  0.618401       0.248478     
  0.736199       0.665882       0.830985E-001  0.101914E-001  0.516138E-002  0.239825E-004
 
 )
