TRANSMISSION%TAU_TOTAL = (
  0.790215       0.293708E-008  0.550292       0.391599       0.769703       0.192875E-021  0.570876       0.414867       0.816867       0.716487E-010
  0.873071       0.803700       0.756146       0.192875E-021  0.633045       0.485600       0.885784       0.440201E-003  0.962539       0.945215     
  0.737343       0.627368E-026  0.712425       0.587797     
 )
TRANSMISSION%TAU_LAYERS = (
   1.00000        1.00000        1.00000        1.00000        1.00000        1.00000        1.00000        1.00000        1.00000        1.00000     
   1.00000        1.00000        1.00000        1.00000        1.00000        1.00000        1.00000        1.00000        1.00000        1.00000     
   1.00000        1.00000        1.00000        1.00000     
 
   1.00000       0.999989        1.00000        1.00000        1.00000       0.999989        1.00000        1.00000        1.00000       0.999989     
   1.00000        1.00000        1.00000       0.999988        1.00000        1.00000        1.00000       0.999991        1.00000        1.00000     
   1.00000       0.999984        1.00000        1.00000     
 
   1.00000       0.999952        1.00000        1.00000        1.00000       0.999955        1.00000        1.00000        1.00000       0.999954     
   1.00000        1.00000        1.00000       0.999955        1.00000        1.00000        1.00000       0.999964        1.00000        1.00000     
   1.00000       0.999938        1.00000        1.00000     
 
   1.00000       0.999859        1.00000        1.00000        1.00000       0.999874        1.00000        1.00000        1.00000       0.999874     
  0.999999        1.00000        1.00000       0.999876        1.00000        1.00000        1.00000       0.999901       0.999999        1.00000     
   1.00000       0.999832       0.999999        1.00000     
 
  0.999999       0.999675       0.999999       0.999999       0.999999       0.999713       0.999999       0.999999       0.999999       0.999721     
  0.999998       0.999999       0.999999       0.999718       0.999999       0.999999        1.00000       0.999780       0.999998       0.999999     
  0.999999       0.999635       0.999998       0.999999     
 
  0.999999       0.999371       0.999996       0.999998       0.999999       0.999434       0.999996       0.999998       0.999999       0.999465     
  0.999995       0.999998       0.999999       0.999440       0.999995       0.999998       0.999999       0.999575       0.999995       0.999998     
  0.999999       0.999315       0.999994       0.999998     
 
  0.999998       0.998949       0.999988       0.999996       0.999998       0.999021       0.999986       0.999995       0.999998       0.999092     
  0.999986       0.999995       0.999998       0.999023       0.999984       0.999994       0.999999       0.999272       0.999989       0.999996     
  0.999997       0.998866       0.999984       0.999994     
 
  0.999997       0.998480       0.999972       0.999990       0.999996       0.998539       0.999968       0.999989       0.999997       0.998660     
  0.999969       0.999990       0.999996       0.998536       0.999963       0.999987       0.999998       0.998913       0.999978       0.999993     
  0.999995       0.998363       0.999960       0.999987     
 
  0.999994       0.997955       0.999940       0.999981       0.999994       0.997990       0.999930       0.999977       0.999994       0.998175     
  0.999934       0.999980       0.999993       0.997984       0.999922       0.999974       0.999996       0.998507       0.999959       0.999988     
  0.999992       0.997800       0.999907       0.999972     
 
  0.999989       0.997428       0.999889       0.999966       0.999988       0.997428       0.999871       0.999959       0.999989       0.997678     
  0.999880       0.999967       0.999987       0.997412       0.999857       0.999954       0.999992       0.998085       0.999932       0.999981     
  0.999985       0.997227       0.999820       0.999950     
 
  0.999980       0.996876       0.999809       0.999943       0.999978       0.996835       0.999780       0.999933       0.999980       0.997150     
  0.999808       0.999948       0.999976       0.996793       0.999756       0.999923       0.999986       0.997627       0.999899       0.999971     
  0.999973       0.996620       0.999699       0.999918     
 
  0.999965       0.996287       0.999699       0.999911       0.999961       0.996206       0.999654       0.999896       0.999965       0.996577     
  0.999728       0.999924       0.999957       0.996121       0.999613       0.999880       0.999975       0.997129       0.999862       0.999958     
  0.999951       0.995952       0.999556       0.999878     
 
  0.999938       0.995609       0.999556       0.999867       0.999932       0.995463       0.999491       0.999846       0.999938       0.995898     
  0.999643       0.999896       0.999924       0.995319       0.999434       0.999825       0.999956       0.996541       0.999818       0.999943     
  0.999913       0.995138       0.999391       0.999827     
 
  0.999893       0.994772       0.999380       0.999810       0.999883       0.994520       0.999298       0.999783       0.999894       0.995042     
  0.999548       0.999861       0.999869       0.994299       0.999227       0.999757       0.999925       0.995804       0.999764       0.999922     
  0.999851       0.994088       0.999209       0.999765     
 
  0.999822       0.993718       0.999172       0.999737       0.999805       0.993296       0.999081       0.999707       0.999824       0.993923     
  0.999437       0.999817       0.999782       0.992958       0.999002       0.999677       0.999875       0.994851       0.999697       0.999894     
  0.999753       0.992709       0.999004       0.999689     
 
  0.999711       0.992389       0.998933       0.999648       0.999683       0.991718       0.998843       0.999617       0.999713       0.992461     
  0.999301       0.999761       0.999646       0.991199       0.998756       0.999583       0.999796       0.993610       0.999612       0.999858     
  0.999598       0.990915       0.998765       0.999594     
 
  0.999542       0.990755       0.998666       0.999542       0.999498       0.989745       0.998582       0.999511       0.999545       0.990595     
  0.999129       0.999687       0.999440       0.988962       0.998479       0.999470       0.999676       0.992028       0.999500       0.999810     
  0.999365       0.988645       0.998483       0.999476     
 
  0.999296       0.988796       0.998376       0.999423       0.999229       0.987333       0.998281       0.999384       0.999301       0.988248     
  0.998909       0.999592       0.999141       0.986168       0.998147       0.999330       0.999500       0.990034       0.999357       0.999748     
  0.999027       0.985826       0.998140       0.999327     
 
  0.998960       0.986458       0.998075       0.999289       0.998861       0.984436       0.997938       0.999233       0.998966       0.985365     
  0.998637       0.999471       0.998732       0.982746       0.997758       0.999159       0.999258       0.987572       0.999177       0.999667     
  0.998566       0.982417       0.997731       0.999144     
 
  0.998516       0.983740       0.997768       0.999142       0.998375       0.981015       0.997561       0.999057       0.998521       0.981846     
  0.998317       0.999322       0.998192       0.978581       0.997315       0.998955       0.998936       0.984557       0.998953       0.999565     
  0.997958       0.978339       0.997265       0.998926     
 
  0.997948       0.980641       0.997461       0.998986       0.997752       0.977095       0.997161       0.998862       0.997950       0.977608     
  0.997957       0.999149       0.997501       0.973588       0.996832       0.998724       0.998520       0.980942       0.998693       0.999442     
  0.997183       0.973538       0.996760       0.998678     
 
  0.997239       0.977074       0.997160       0.998824       0.996977       0.972669       0.996750       0.998652       0.997238       0.972629     
  0.997578       0.998958       0.996641       0.967815       0.996328       0.998471       0.998000       0.976723       0.998410       0.999303     
  0.996220       0.967994       0.996239       0.998411     
 
  0.996359       0.972865       0.996877       0.998661       0.996013       0.967575       0.996346       0.998435       0.996351       0.966693     
  0.997201       0.998759       0.995573       0.961071       0.995827       0.998208       0.997349       0.971742       0.998125       0.999157     
  0.995025       0.961458       0.995722       0.998133     
 
  0.995285       0.967838       0.996623       0.998503       0.994834       0.961680       0.995971       0.998221       0.995267       0.959632     
  0.996840       0.998557       0.994269       0.953372       0.995345       0.997942       0.996552       0.965842       0.997852       0.999008     
  0.993565       0.953795       0.995227       0.997852     
 
  0.993983       0.961644       0.996394       0.998345       0.993409       0.954884       0.995619       0.998004       0.993954       0.951744     
  0.996488       0.998349       0.992693       0.945280       0.994871       0.997667       0.995585       0.959379       0.997587       0.998856     
  0.991803       0.945047       0.994749       0.997564     
 
  0.992413       0.954580       0.996164       0.998175       0.991698       0.946751       0.995266       0.997775       0.992377       0.942469     
  0.996131       0.998126       0.990801       0.935756       0.994389       0.997375       0.994422       0.951911       0.997320       0.998694     
  0.989688       0.933991       0.994273       0.997260     
 
  0.990574       0.944576       0.995908       0.997980       0.989694       0.937113       0.994890       0.997523       0.990529       0.932112     
  0.995751       0.997882       0.988589       0.925044       0.993876       0.997055       0.993059       0.943811       0.997044       0.998519     
  0.987213       0.919998       0.993777       0.996930     
 
  0.988433       0.930439       0.995602       0.997750       0.987364       0.924262       0.994482       0.997241       0.988381       0.920214     
  0.995338       0.997611       0.986015       0.912819       0.993325       0.996703       0.991472       0.934587       0.996756       0.998328     
  0.984334       0.900636       0.993247       0.996564     
 
  0.985992       0.909311       0.995235       0.997480       0.984710       0.903154       0.994041       0.996930       0.985934       0.906864     
  0.994893       0.997313       0.983085       0.899188       0.992731       0.996317       0.989665       0.922533       0.996455       0.998122     
  0.981053       0.868340       0.992676       0.996157     
 
  0.983211       0.869506       0.994791       0.997156       0.981685       0.858916       0.993542       0.996571       0.983150       0.887932     
  0.994420       0.996989       0.979750       0.878171       0.992096       0.995895       0.987610       0.904731       0.996135       0.997898     
  0.977316       0.821746       0.992064       0.995707     
 
  0.980096       0.800956       0.994259       0.996764       0.978294       0.774086       0.992949       0.996127       0.980035       0.854231     
  0.993921       0.996636       0.976018       0.840419       0.991425       0.995436       0.985310       0.876090       0.995794       0.997653     
  0.973131       0.757487       0.991402       0.995199     
 
  0.976583       0.689141       0.993593       0.996213       0.974455       0.634400       0.992201       0.995459       0.976541       0.798830     
  0.993378       0.996235       0.971829       0.773059       0.990706       0.994913       0.982733       0.837274       0.995427       0.997381     
  0.968430       0.674065       0.990644       0.994598     
 
  0.972688       0.553745       0.992771       0.995437       0.970189       0.489546       0.991276       0.994503       0.972696       0.727593     
  0.992773       0.995783       0.967209       0.663976       0.989904       0.994295       0.979898       0.794081       0.995038       0.997089     
  0.963235       0.564923       0.989742       0.993823     
 
  0.968297       0.403203       0.991687       0.994166       0.965393       0.352689       0.990079       0.993056       0.968432       0.637588     
  0.992061       0.995223       0.962037       0.499662       0.988889       0.993315       0.976758       0.744796       0.994612       0.996761     
  0.957427       0.427290       0.988621       0.992699     
 
  0.963391       0.266584       0.990211       0.992048       0.960080       0.238364       0.988530       0.990918       0.963776       0.531816     
  0.991224       0.994487       0.956291       0.332411       0.987532       0.991599       0.973336       0.661608       0.994124       0.996354     
  0.951021       0.293705       0.987208       0.991012     
 
  0.957917       0.157227       0.988238       0.988856       0.954211       0.148696       0.986575       0.987976       0.958682       0.413224     
  0.990217       0.993458       0.949897       0.195624       0.985708       0.988858       0.969600       0.552647       0.993546       0.995803     
  0.943978       0.188621       0.985435       0.988658     
 
  0.951779       0.817260E-001  0.985443       0.983945       0.947691       0.823044E-001  0.983920       0.983594       0.953129       0.292565     
  0.988999       0.992010       0.942797       0.101746       0.983195       0.984682       0.965556       0.447246       0.992871       0.995120     
  0.936239       0.108670       0.983135       0.985259     
 
  0.944929       0.362693E-001  0.981541       0.976811       0.940554       0.412962E-001  0.980522       0.977759       0.947097       0.187762     
  0.987428       0.989794       0.934952       0.463597E-001  0.979696       0.978507       0.961213       0.346360       0.992056       0.994191     
  0.927820       0.568527E-001  0.980175       0.980566     
 
  0.937292       0.131985E-001  0.976034       0.966680       0.932770       0.180274E-001  0.976106       0.970022       0.940616       0.112434     
  0.985481       0.986811       0.926296       0.175814E-001  0.974768       0.969619       0.956566       0.252449       0.991066       0.992895     
  0.918709       0.262524E-001  0.976329       0.974204     
 
  0.928800       0.406138E-002  0.968347       0.952807       0.924225       0.662328E-002  0.970144       0.959447       0.933681       0.625567E-001
  0.983032       0.982808       0.916778       0.544484E-002  0.967945       0.957346       0.951614       0.171415       0.989827       0.991049     
  0.908900       0.105215E-001  0.971397       0.965792     
 
  0.919581       0.112839E-002  0.958468       0.935533       0.914785       0.192118E-002  0.961646       0.944460       0.926304       0.310863E-001
  0.979944       0.977560       0.906412       0.131281E-002  0.958641       0.940975       0.946371       0.108743       0.988293       0.988565     
  0.898372       0.351478E-002  0.964872       0.954596     
 
  0.909409       0.184213E-003  0.944891       0.912575       0.904387       0.378571E-003  0.949895       0.924264       0.918470       0.137000E-001
  0.976018       0.970717       0.895239       0.273548E-003  0.946667       0.920540       0.940868       0.655597E-001  0.986439       0.985442     
  0.887167       0.999857E-003  0.956718       0.940728     
 
  0.897732       0.150238E-004  0.923747       0.878113       0.893042       0.511029E-004  0.933815       0.897417       0.910208       0.529473E-002
  0.971022       0.961925       0.883340       0.449856E-004  0.931372       0.895107       0.935158       0.375842E-001  0.984302       0.981778     
  0.875347       0.258055E-003  0.946375       0.923275     
 
  0.884139       0.293708E-008  0.890215       0.826140       0.880625       0.469136E-006  0.911282       0.861263       0.901675       0.194784E-002
  0.965078       0.951517       0.870758       0.439947E-006  0.911945       0.863834       0.929338       0.219140E-001  0.981983       0.977763     
  0.862971       0.260364E-004  0.933178       0.901437     
 
  0.868656       0.293708E-008  0.842257       0.755859       0.867323       0.381246E-006  0.882253       0.816615       0.893013       0.688691E-003
  0.958354       0.939914       0.857788       0.299003E-006  0.889215       0.828393       0.923481       0.127607E-001  0.979471       0.973446     
  0.850307       0.798241E-005  0.917728       0.876420     
 
  0.851781       0.293708E-008  0.782371       0.672791       0.853326       0.140374E-006  0.846959       0.764426       0.884383       0.257746E-003
  0.951033       0.927472       0.844668       0.652919E-007  0.863897       0.790040       0.917687       0.744674E-002  0.976827       0.968958     
  0.837602       0.234151E-005  0.900672       0.849371     
 
  0.834213       0.293708E-008  0.716389       0.586531       0.838523       0.139769E-006  0.803765       0.703444       0.875807       0.870459E-004
  0.943093       0.914171       0.831319       0.333494E-007  0.834720       0.747454       0.912002       0.437080E-002  0.974256       0.964551     
  0.824760       0.657493E-006  0.880448       0.818410     
 
  0.817072       0.293708E-008  0.652202       0.507553       0.823775       0.139769E-006  0.757691       0.641300       0.867546       0.245249E-004
  0.934954       0.900752       0.818418       0.225990E-007  0.805106       0.705656       0.906548       0.264359E-002  0.971682       0.960214     
  0.812448       0.175622E-006  0.860151       0.788206     
 
  0.800390       0.293708E-008  0.589934       0.435354       0.809290       0.139769E-006  0.709906       0.579827       0.859670       0.580837E-005
  0.926618       0.887170       0.805980       0.225990E-007  0.774759       0.664330       0.901394       0.159436E-002  0.969160       0.956000     
  0.800804       0.175622E-006  0.840189       0.759462     
 
  0.783365       0.293708E-008  0.524850       0.364366       0.795035       0.729020E-010  0.660334       0.518570       0.852223       0.124476E-005
  0.918168       0.873589       0.793847       0.129442E-010  0.742239       0.621152       0.896618       0.106077E-002  0.967055       0.952535     
  0.789635       0.974572E-009  0.818862       0.729190     
 
  0.768116       0.192875E-021  0.470394       0.308566       0.781660       0.192875E-021  0.613102       0.462745       0.845411       0.215492E-006
  0.910002       0.860621       0.782552       0.303755E-018  0.710570       0.580404       0.892301       0.739353E-003  0.965206       0.949533     
  0.779411       0.123866E-012  0.798502       0.700958     
 
  0.754358       0.192875E-021  0.423369       0.263083       0.769556       0.192875E-021  0.570371       0.414305       0.839344       0.402670E-007
  0.902415       0.848712       0.772379       0.192875E-021  0.681142       0.543585       0.888495       0.544226E-003  0.963639       0.946990     
  0.770319       0.132635E-016  0.779734       0.675455     
 
  0.742287       0.192875E-021  0.383933       0.226945       0.758906       0.192875E-021  0.532990       0.373595       0.834071       0.925862E-008
  0.895622       0.838167       0.763472       0.192875E-021  0.654861       0.511575       0.885210       0.420833E-003  0.962305       0.944838     
  0.762431       0.578476E-020  0.763115       0.653315     
 
  0.732300       0.192875E-021  0.352823       0.199767       0.750081       0.192875E-021  0.502503       0.341540       0.829777       0.277800E-008
  0.889984       0.829497       0.756146       0.192875E-021  0.633045       0.485600       0.882543       0.344272E-003  0.961258       0.943158     
  0.756140       0.192875E-021  0.750237       0.636441     
 
 )
