TRANSMISSION%TAU_TOTAL = (
  0.761032E-008  0.664674E-010  0.769690E-009  0.121216E-004  0.467431E-002  0.132010E-001  0.530067E-001  0.500966       0.299031       0.214543     
  0.112892E-005  0.192875E-021  0.218239       0.596506E-001  0.104486E-001  0.179525E-002  0.472889       0.843042       0.765159       0.166526E-008
  0.155137E-010  0.681183E-010  0.510215E-005  0.318432E-002  0.907015E-002  0.496963E-001  0.525836       0.223722       0.225951       0.111932E-005
  0.192875E-021  0.181517       0.393484E-001  0.623121E-002  0.778593E-003  0.401133       0.822023       0.759236       0.568401E-008  0.165883E-008
  0.148017E-008  0.414924E-004  0.122833E-001  0.340005E-001  0.188187       0.863931       0.278257       0.610938       0.589225E-002  0.378446E-020
  0.227017       0.421490E-001  0.743884E-002  0.817337E-003  0.368595       0.844912       0.877470       0.170833E-009  0.691116E-011  0.163940E-010
  0.417481E-005  0.301472E-002  0.856878E-002  0.613781E-001  0.594757       0.202594       0.282393       0.988411E-005  0.192875E-021  0.162840     
  0.273636E-001  0.427137E-002  0.404348E-003  0.332744       0.804944       0.766841       0.510125E-006  0.368497E-006  0.809457E-006  0.681287E-003
  0.501521E-001  0.128547       0.385835       0.963348       0.386017       0.845408       0.105858       0.215491E-009  0.366276       0.107529     
  0.243415E-001  0.562201E-002  0.519255       0.903057       0.950112       0.110340E-010  0.135434E-011  0.112361E-011  0.186566E-005  0.219968E-002
  0.627514E-002  0.689763E-001  0.688141       0.211394       0.355394       0.394700E-004  0.192875E-021  0.132293       0.156882E-001  0.233129E-002
  0.164139E-003  0.258035       0.779534       0.781310     
 )
TRANSMISSION%TAU_LAYERS = (
   1.00000        1.00000        1.00000        1.00000        1.00000        1.00000        1.00000        1.00000        1.00000        1.00000     
   1.00000        1.00000        1.00000        1.00000        1.00000        1.00000        1.00000        1.00000        1.00000        1.00000     
   1.00000        1.00000        1.00000        1.00000        1.00000        1.00000        1.00000        1.00000        1.00000        1.00000     
   1.00000        1.00000        1.00000        1.00000        1.00000        1.00000        1.00000        1.00000        1.00000        1.00000     
   1.00000        1.00000        1.00000        1.00000        1.00000        1.00000        1.00000        1.00000        1.00000        1.00000     
   1.00000        1.00000        1.00000        1.00000        1.00000        1.00000        1.00000        1.00000        1.00000        1.00000     
   1.00000        1.00000        1.00000        1.00000        1.00000        1.00000        1.00000        1.00000        1.00000        1.00000     
   1.00000        1.00000        1.00000        1.00000        1.00000        1.00000        1.00000        1.00000        1.00000        1.00000     
   1.00000        1.00000        1.00000        1.00000        1.00000        1.00000        1.00000        1.00000        1.00000        1.00000     
   1.00000        1.00000        1.00000        1.00000        1.00000        1.00000        1.00000        1.00000        1.00000        1.00000     
   1.00000        1.00000        1.00000        1.00000        1.00000        1.00000        1.00000        1.00000        1.00000        1.00000     
   1.00000        1.00000        1.00000        1.00000     
 
  0.989182       0.998293       0.998746       0.999587       0.999884       0.999959       0.999992        1.00000       0.999972        1.00000     
  0.999999       0.999977       0.999985       0.999996       0.999961       0.999849        1.00000        1.00000        1.00000       0.989569     
  0.998322       0.998784       0.999630       0.999909       0.999968       0.999994        1.00000       0.999970        1.00000       0.999999     
  0.999977       0.999984       0.999996       0.999966       0.999862        1.00000        1.00000        1.00000       0.987514       0.998109     
  0.998565       0.999441       0.999795       0.999931       0.999983        1.00000       0.999974        1.00000       0.999999       0.999978     
  0.999983       0.999996       0.999940       0.999796        1.00000        1.00000        1.00000       0.989402       0.998287       0.998763     
  0.999626       0.999910       0.999968       0.999994        1.00000       0.999964        1.00000       0.999999       0.999975       0.999983     
  0.999996       0.999965       0.999857        1.00000        1.00000        1.00000       0.988246       0.998249       0.998651       0.999469     
  0.999801       0.999934       0.999982        1.00000       0.999978        1.00000       0.999999       0.999984       0.999987       0.999996     
  0.999945       0.999823        1.00000        1.00000        1.00000       0.986691       0.997960       0.998474       0.999401       0.999783     
  0.999925       0.999984        1.00000       0.999962        1.00000       0.999998       0.999970       0.999978       0.999995       0.999933     
  0.999761        1.00000        1.00000        1.00000     
 
  0.982596       0.997324       0.998057       0.999111       0.999566       0.999849       0.999967        1.00000       0.999940        1.00000     
  0.999996       0.999907       0.999954       0.999989       0.999866       0.999545        1.00000        1.00000        1.00000       0.983257     
  0.997389       0.998133       0.999181       0.999632       0.999871       0.999974        1.00000       0.999944        1.00000       0.999996     
  0.999910       0.999952       0.999989       0.999880       0.999572        1.00000        1.00000        1.00000       0.979729       0.996966     
  0.997728       0.998848       0.999318       0.999768       0.999937        1.00000       0.999941       0.999999       0.999995       0.999915     
  0.999950       0.999987       0.999804       0.999408       0.999999        1.00000        1.00000       0.983110       0.997347       0.998122     
  0.999181       0.999636       0.999872       0.999975        1.00000       0.999938        1.00000       0.999996       0.999909       0.999948     
  0.999988       0.999878       0.999560        1.00000        1.00000        1.00000       0.980349       0.997132       0.997789       0.998857     
  0.999334       0.999779       0.999933        1.00000       0.999950       0.999999       0.999996       0.999936       0.999962       0.999989     
  0.999816       0.999468       0.999999        1.00000        1.00000       0.978785       0.996754       0.997639       0.998811       0.999280     
  0.999750       0.999939        1.00000       0.999914       0.999999       0.999993       0.999883       0.999934       0.999984       0.999785     
  0.999331       0.999999        1.00000        1.00000     
 
  0.973976       0.995923       0.997085       0.998455       0.998854       0.999598       0.999894        1.00000       0.999867       0.999999     
  0.999987       0.999739       0.999897       0.999975       0.999656       0.999005       0.999999        1.00000        1.00000       0.974354     
  0.995936       0.997148       0.998517       0.998921       0.999619       0.999905        1.00000       0.999859       0.999999       0.999988     
  0.999761       0.999892       0.999975       0.999672       0.999027       0.999999        1.00000        1.00000       0.970640       0.995486     
  0.996627       0.998102       0.998455       0.999463       0.999832        1.00000       0.999850       0.999998       0.999986       0.999776     
  0.999890       0.999970       0.999541       0.998787       0.999999        1.00000        1.00000       0.973975       0.995834       0.997112     
  0.998508       0.998906       0.999612       0.999905        1.00000       0.999844       0.999999       0.999988       0.999763       0.999882     
  0.999973       0.999663       0.998999       0.999999        1.00000        1.00000       0.971452       0.995748       0.996717       0.998112     
  0.998506       0.999494       0.999828        1.00000       0.999854       0.999998       0.999988       0.999828       0.999917       0.999974     
  0.999572       0.998892       0.999998        1.00000        1.00000       0.969319       0.995129       0.996484       0.998054       0.998362     
  0.999418       0.999833        1.00000       0.999791       0.999998       0.999982       0.999695       0.999855       0.999963       0.999500     
  0.998660       0.999999        1.00000        1.00000     
 
  0.962923       0.994006       0.995628       0.997508       0.997681       0.999165       0.999725        1.00000       0.999633       0.999997     
  0.999966       0.999426       0.999804       0.999949       0.999260       0.998183       0.999998        1.00000        1.00000       0.962452     
  0.993874       0.995581       0.997499       0.997659       0.999154       0.999725        1.00000       0.999575       0.999997       0.999968     
  0.999485       0.999791       0.999946       0.999250       0.998155       0.999998       0.999999       0.999999       0.959903       0.993619     
  0.995140       0.997109       0.997233       0.999009       0.999630        1.00000       0.999590       0.999995       0.999966       0.999517     
  0.999794       0.999940       0.999096       0.997909       0.999997        1.00000        1.00000       0.961605       0.993668       0.995477     
  0.997454       0.997594       0.999126       0.999719        1.00000       0.999540       0.999997       0.999968       0.999490       0.999772     
  0.999942       0.999221       0.998092       0.999998       0.999999       0.999999       0.961799       0.994129       0.995392       0.997214     
  0.997409       0.999094       0.999649        1.00000       0.999623       0.999995       0.999972       0.999624       0.999846       0.999950     
  0.999189       0.998118       0.999997        1.00000        1.00000       0.957652       0.993010       0.994862       0.997000       0.997057     
  0.998922       0.999617        1.00000       0.999415       0.999995       0.999957       0.999362       0.999731       0.999927       0.999006     
  0.997702       0.999997       0.999999       0.999999     
 
  0.947813       0.991335       0.993484       0.996115       0.996118       0.998570       0.999391        1.00000       0.998967       0.999990     
  0.999918       0.998940       0.999670       0.999901       0.998570       0.996969       0.999996       0.999999       0.999999       0.946275     
  0.991021       0.993266       0.995987       0.995979       0.998515       0.999357        1.00000       0.998779       0.999990       0.999923     
  0.999034       0.999646       0.999894       0.998498       0.996847       0.999995       0.999999       0.999999       0.945635       0.991046     
  0.993079       0.995773       0.995761       0.998442       0.999288        1.00000       0.998853       0.999988       0.999923       0.999102     
  0.999659       0.999889       0.998394       0.996701       0.999995       0.999999       0.999999       0.944336       0.990621       0.992990     
  0.995826       0.995808       0.998448       0.999315        1.00000       0.998720       0.999989       0.999921       0.999040       0.999613     
  0.999884       0.998401       0.996684       0.999995       0.999999       0.999999       0.949748       0.991998       0.993672       0.996084     
  0.996126       0.998602       0.999370        1.00000       0.999033       0.999989       0.999940       0.999289       0.999744       0.999912     
  0.998620       0.997105       0.999995       0.999999       0.999999       0.941225       0.989966       0.992490       0.995512       0.995464     
  0.998304       0.999229        1.00000       0.998406       0.999987       0.999901       0.998850       0.999556       0.999864       0.998198     
  0.996333       0.999995       0.999999       0.999999     
 
  0.925035       0.987188       0.990156       0.994183       0.994243       0.997857       0.998838       0.999999       0.997277       0.999975     
  0.999823       0.998294       0.999508       0.999822       0.997485       0.995250       0.999992       0.999998       0.999998       0.922026     
  0.986605       0.989668       0.993899       0.993970       0.997755       0.998744       0.999999       0.996932       0.999972       0.999828     
  0.998395       0.999471       0.999804       0.997306       0.994984       0.999991       0.999998       0.999998       0.923723       0.986980     
  0.989873       0.993961       0.994011       0.997767       0.998756       0.999999       0.996961       0.999972       0.999840       0.998520     
  0.999496       0.999810       0.997346       0.995049       0.999991       0.999998       0.999998       0.918054       0.985845       0.989008     
  0.993512       0.993603       0.997621       0.998616       0.999999       0.996856       0.999968       0.999819       0.998395       0.999422     
  0.999778       0.997050       0.994609       0.999990       0.999998       0.999998       0.931681       0.988692       0.991105       0.994591     
  0.994627       0.998018       0.998956       0.999999       0.997532       0.999978       0.999880       0.998808       0.999620       0.999856     
  0.997800       0.995767       0.999992       0.999999       0.999999       0.915161       0.985068       0.988599       0.993389       0.993476     
  0.997544       0.998595       0.999999       0.996013       0.999967       0.999788       0.998161       0.999349       0.999760       0.996935     
  0.994374       0.999990       0.999998       0.999997     
 
  0.894514       0.981415       0.985495       0.991823       0.992137       0.997043       0.998120       0.999998       0.993982       0.999946     
  0.999671       0.997594       0.999344       0.999704       0.996101       0.993205       0.999986       0.999997       0.999996       0.889641     
  0.980473       0.984620       0.991327       0.991675       0.996868       0.997940       0.999998       0.993592       0.999938       0.999668     
  0.997671       0.999295       0.999667       0.995765       0.992750       0.999984       0.999997       0.999996       0.893746       0.981252     
  0.985305       0.991685       0.991980       0.996972       0.998062       0.999998       0.993318       0.999943       0.999705       0.997863     
  0.999332       0.999694       0.996008       0.993071       0.999986       0.999997       0.999996       0.883603       0.979296       0.983528     
  0.990715       0.991113       0.996654       0.997718       0.999998       0.993516       0.999928       0.999649       0.997662       0.999231     
  0.999618       0.995335       0.992173       0.999982       0.999997       0.999996       0.907090       0.984035       0.987564       0.992819     
  0.993026       0.997387       0.998451       0.999999       0.994677       0.999960       0.999785       0.998251       0.999495       0.999780     
  0.996812       0.994237       0.999989       0.999998       0.999997       0.879650       0.978198       0.982970       0.990601       0.991017     
  0.996575       0.997720       0.999998       0.991341       0.999926       0.999601       0.997406       0.999144       0.999601       0.995263     
  0.991974       0.999983       0.999996       0.999995     
 
  0.851128       0.972859       0.978598       0.988504       0.989337       0.995900       0.997154       0.999997       0.987923       0.999894     
  0.999430       0.996820       0.999162       0.999499       0.994310       0.990728       0.999978       0.999995       0.999993       0.843932     
  0.971429       0.977197       0.987689       0.988593       0.995596       0.996847       0.999996       0.987487       0.999876       0.999408     
  0.996858       0.999098       0.999427       0.993763       0.990042       0.999975       0.999995       0.999993       0.851359       0.972773     
  0.978623       0.988551       0.989341       0.995875       0.997165       0.999997       0.986387       0.999893       0.999487       0.997135     
  0.999150       0.999501       0.994361       0.990765       0.999978       0.999995       0.999993       0.835825       0.969752       0.975665     
  0.986846       0.987853       0.995291       0.996544       0.999995       0.987525       0.999858       0.999371       0.996846       0.999019     
  0.999345       0.993183       0.989311       0.999971       0.999994       0.999992       0.871975       0.977090       0.982434       0.990555     
  0.991155       0.996624       0.997866       0.999998       0.989341       0.999932       0.999637       0.997629       0.999358       0.999661     
  0.995686       0.992540       0.999984       0.999996       0.999995       0.829802       0.968008       0.974628       0.986516       0.987539     
  0.995085       0.996485       0.999996       0.982645       0.999849       0.999296       0.996575       0.998913       0.999316       0.993080     
  0.989059       0.999972       0.999993       0.999990     
 
  0.799166       0.961541       0.969690       0.984222       0.985793       0.994347       0.995982       0.999994       0.979005       0.999816     
  0.999086       0.996038       0.998947       0.999172       0.992282       0.988041       0.999967       0.999991       0.999988       0.789527     
  0.959499       0.967646       0.982980       0.984668       0.993856       0.995513       0.999993       0.978512       0.999783       0.999030     
  0.996026       0.998865       0.999048       0.991483       0.987088       0.999962       0.999991       0.999987       0.800994       0.961536     
  0.970059       0.984590       0.986066       0.994411       0.996120       0.999995       0.976405       0.999823       0.999174       0.996390     
  0.998938       0.999201       0.992584       0.988357       0.999969       0.999991       0.999988       0.779247       0.957157       0.965535     
  0.981796       0.983650       0.993409       0.995100       0.999991       0.978537       0.999755       0.998963       0.996002       0.998769     
  0.998917       0.990720       0.986159       0.999957       0.999990       0.999985       0.828855       0.967802       0.975712       0.987684     
  0.988862       0.995647       0.997199       0.999997       0.981497       0.999894       0.999422       0.996985       0.999202       0.999469     
  0.994453       0.990731       0.999979       0.999994       0.999991       0.772029       0.954512       0.963968       0.981271       0.983083     
  0.993017       0.994985       0.999992       0.970866       0.999736       0.998859       0.995727       0.998637       0.998870       0.990675     
  0.985947       0.999958       0.999988       0.999983     
 
  0.736068       0.944994       0.957190       0.978251       0.980775       0.992026       0.994458       0.999990       0.965674       0.999701     
  0.998583       0.995202       0.998666       0.998636       0.989907       0.984907       0.999953       0.999985       0.999978       0.724169     
  0.942131       0.954334       0.976459       0.979160       0.991295       0.993804       0.999987       0.965063       0.999649       0.998473     
  0.995131       0.998559       0.998442       0.988835       0.983649       0.999945       0.999984       0.999976       0.740203       0.945049     
  0.958082       0.979161       0.981532       0.992284       0.994804       0.999991       0.963139       0.999726       0.998708       0.995581     
  0.998667       0.998704       0.990540       0.985584       0.999957       0.999985       0.999978       0.711313       0.938777       0.951248     
  0.974624       0.977566       0.990579       0.993181       0.999985       0.964961       0.999601       0.998351       0.995070       0.998434     
  0.998226       0.987744       0.982346       0.999938       0.999982       0.999974       0.774523       0.954121       0.966114       0.983640     
  0.985648       0.994226       0.996347       0.999995       0.971237       0.999842       0.999092       0.996276       0.999009       0.999131     
  0.992954       0.988572       0.999971       0.999990       0.999985       0.704766       0.934797       0.949182       0.974118       0.976907     
  0.990033       0.993096       0.999986       0.955391       0.999579       0.998225       0.994802       0.998271       0.998158       0.987914     
  0.982327       0.999940       0.999979       0.999969     
 
  0.670487       0.922716       0.940769       0.970350       0.973900       0.988737       0.992468       0.999980       0.948430       0.999542     
  0.997902       0.994284       0.998246       0.997747       0.986987       0.981057       0.999933       0.999975       0.999963       0.657125     
  0.918794       0.936955       0.967923       0.971711       0.987722       0.991616       0.999976       0.947284       0.999467       0.997726     
  0.994152       0.998100       0.997460       0.985638       0.979470       0.999923       0.999972       0.999959       0.677446       0.922936     
  0.942513       0.972156       0.975564       0.989427       0.993175       0.999983       0.947849       0.999606       0.998076       0.994671     
  0.998279       0.997863       0.988012       0.982171       0.999940       0.999975       0.999964       0.642273       0.914146       0.932652     
  0.965259       0.969391       0.986672       0.990744       0.999972       0.946974       0.999392       0.997524       0.994027       0.997928     
  0.997124       0.984155       0.977701       0.999911       0.999969       0.999955       0.716299       0.935696       0.953509       0.978339     
  0.981364       0.992288       0.995282       0.999989       0.959454       0.999776       0.998628       0.995482       0.998737       0.998531     
  0.991047       0.985902       0.999960       0.999982       0.999975       0.637163       0.908448       0.929995       0.964863       0.968767     
  0.986030       0.990735       0.999973       0.936645       0.999380       0.997379       0.993746       0.997733       0.996999       0.984501     
  0.977829       0.999915       0.999965       0.999948     
 
  0.604619       0.893207       0.919376       0.959963       0.964705       0.984234       0.989852       0.999959       0.925940       0.999330     
  0.997031       0.993194       0.997592       0.996308       0.983176       0.976053       0.999903       0.999958       0.999940       0.590295     
  0.887945       0.914417       0.956790       0.961871       0.982897       0.988785       0.999953       0.924195       0.999229       0.996776     
  0.992962       0.997385       0.995899       0.981513       0.974075       0.999889       0.999954       0.999934       0.614663       0.893801     
  0.922542       0.963261       0.967991       0.985780       0.991194       0.999962       0.929802       0.999465       0.997270       0.993553     
  0.997703       0.996495       0.984689       0.977741       0.999914       0.999959       0.999942       0.574341       0.881709       0.908806     
  0.953291       0.958893       0.981553       0.987715       0.999946       0.923867       0.999130       0.996485       0.992745       0.997146     
  0.995416       0.979648       0.971825       0.999874       0.999949       0.999927       0.656785       0.911300       0.937165       0.971481     
  0.975778       0.989734       0.993956       0.999975       0.945674       0.999697       0.998015       0.994511       0.998333       0.997508     
  0.988481       0.982410       0.999942       0.999971       0.999961       0.569820       0.873849       0.905389       0.953031       0.958407     
  0.980878       0.987801       0.999945       0.913270       0.999137       0.996325       0.992417       0.996917       0.995194       0.980069     
  0.972000       0.999876       0.999942       0.999917     
 
  0.537803       0.855038       0.892099       0.946627       0.952978       0.978402       0.986526       0.999916       0.897318       0.999063     
  0.995980       0.991820       0.996601       0.994180       0.978202       0.969526       0.999858       0.999933       0.999907       0.522714     
  0.848208       0.885893       0.942666       0.949581       0.976811       0.985288       0.999905       0.895892       0.998939       0.995636     
  0.991412       0.996316       0.993631       0.976187       0.967090       0.999840       0.999926       0.999898       0.550707       0.856160     
  0.897305       0.952116       0.958657       0.981271       0.988821       0.999919       0.907832       0.999306       0.996304       0.992098     
  0.996856       0.994471       0.980342       0.971984       0.999874       0.999935       0.999913       0.506048       0.840053       0.878876     
  0.938346       0.946076       0.975250       0.984082       0.999892       0.896174       0.998823       0.995254       0.991068       0.995990     
  0.992985       0.973940       0.964332       0.999819       0.999918       0.999888       0.595831       0.879630       0.916221       0.962647     
  0.968612       0.986453       0.992300       0.999944       0.929093       0.999604       0.997250       0.993259       0.997724       0.995917     
  0.984982       0.977748       0.999913       0.999955       0.999941       0.500932       0.829468       0.874456       0.938217       0.945752     
  0.974550       0.984271       0.999884       0.884783       0.998856       0.995085       0.990656       0.995727       0.992659       0.974415     
  0.964520       0.999818       0.999908       0.999874     
 
  0.469346       0.807017       0.858211       0.929989       0.938690       0.971203       0.982461       0.999834       0.862324       0.998743     
  0.994752       0.990058       0.995169       0.991274       0.971881       0.961191       0.999788       0.999895       0.999864       0.453845     
  0.798472       0.850757       0.925298       0.934997       0.969555       0.981173       0.999815       0.863243       0.998611       0.994311     
  0.989365       0.994798       0.990585       0.969492       0.958239       0.999764       0.999885       0.999851       0.483974       0.808726     
  0.865861       0.938215       0.947333       0.975792       0.985981       0.999835       0.881642       0.999126       0.995169       0.990166     
  0.995643       0.991701       0.974735       0.964555       0.999808       0.999899       0.999874       0.436893       0.788026       0.842179     
  0.920136       0.931076       0.967846       0.979881       0.999791       0.864688       0.998486       0.993836       0.988829       0.994367     
  0.989774       0.966862       0.954938       0.999735       0.999872       0.999836       0.531920       0.839469       0.889823       0.951383     
  0.959629       0.982341       0.990246       0.999884       0.909211       0.999493       0.996325       0.991612       0.996819       0.993635     
  0.980305       0.971582       0.999867       0.999929       0.999913       0.430332       0.774087       0.836284       0.919940       0.930700     
  0.966985       0.980094       0.999768       0.851276       0.998539       0.993654       0.988310       0.994055       0.989330       0.967338     
  0.955065       0.999725       0.999856       0.999817     
 
  0.400622       0.748499       0.817146       0.909752       0.921939       0.962658       0.977663       0.999696       0.821899       0.998377     
  0.993313       0.987819       0.993202       0.987459       0.963981       0.950742       0.999681       0.999839       0.999806       0.385187     
  0.738131       0.808391       0.904343       0.918210       0.961158       0.976445       0.999664       0.827180       0.998254       0.992758     
  0.986700       0.992733       0.986615       0.961160       0.947179       0.999648       0.999824       0.999790       0.415113       0.750776     
  0.827200       0.920840       0.933656       0.969153       0.982539       0.999695       0.851007       0.998917       0.993809       0.987626     
  0.993945       0.988026       0.967505       0.954986       0.999703       0.999846       0.999822       0.368307       0.725119       0.797977     
  0.898179       0.913890       0.959326       0.975079       0.999623       0.830484       0.998124       0.992172       0.985864       0.992171     
  0.985602       0.958055       0.943206       0.999607       0.999803       0.999769       0.465230       0.789902       0.857212       0.937259     
  0.948659       0.977301       0.987743       0.999784       0.885639       0.999362       0.995206       0.989448       0.995524       0.990541     
  0.974226       0.963607       0.999792       0.999892       0.999877       0.359757       0.707303       0.789912       0.897449       0.912969     
  0.958005       0.975126       0.999574       0.813094       0.998179       0.991956       0.985243       0.991766       0.984946       0.958348     
  0.943059       0.999579       0.999780       0.999741     
 
  0.333824       0.679752       0.768747       0.885824       0.903114       0.952931       0.972227       0.999485       0.778252       0.997982     
  0.991600       0.985058       0.990607       0.982421       0.954100       0.937796       0.999516       0.999758       0.999732       0.318833     
  0.667430       0.758442       0.879511       0.899334       0.951587       0.971079       0.999433       0.788077       0.997872       0.990905     
  0.983346       0.990007       0.981354       0.950717       0.933463       0.999469       0.999735       0.999710       0.346459       0.682376     
  0.780722       0.899479       0.917488       0.961203       0.978391       0.999479       0.815654       0.998675       0.992150       0.984369     
  0.991632       0.983097       0.958166       0.942786       0.999538       0.999769       0.999753       0.302233       0.651724       0.745736     
  0.871906       0.894365       0.949491       0.969527       0.999365       0.792882       0.997728       0.990171       0.982065       0.989252     
  0.980033       0.946911       0.928551       0.999409       0.999704       0.999681       0.397770       0.730514       0.817821       0.919946     
  0.935653       0.971247       0.984743       0.999631       0.857946       0.999211       0.993845       0.986667       0.993741       0.986425     
  0.966457       0.953504       0.999674       0.999838       0.999829       0.291631       0.629918       0.734961       0.870204       0.892520     
  0.947477       0.969260       0.999275       0.770723       0.997771       0.989886       0.981352       0.988690       0.978981       0.946740     
  0.927837       0.999352       0.999670       0.999643     
 
  0.270716       0.602261       0.713388       0.858302       0.882856       0.942337       0.966341       0.999182       0.734860       0.997580     
  0.989535       0.981726       0.987282       0.975707       0.941690       0.921886       0.999264       0.999645       0.999639       0.256419     
  0.587894       0.700952       0.850465       0.878469       0.940777       0.965016       0.999102       0.746422       0.997460       0.988655     
  0.979228       0.986462       0.974294       0.937505       0.916506       0.999196       0.999609       0.999609       0.280273       0.604797     
  0.726239       0.873617       0.898760       0.951794       0.973421       0.999173       0.775612       0.998391       0.990100       0.980276     
  0.988540       0.976452       0.946096       0.927366       0.999283       0.999659       0.999664       0.240521       0.569575       0.685437     
  0.840806       0.872363       0.938079       0.963039       0.998997       0.750680       0.997282       0.987718       0.977301       0.985411     
  0.972506       0.932707       0.910331       0.999107       0.999563       0.999568       0.331516       0.661739       0.771349       0.899127     
  0.920599       0.964077       0.981177       0.999412       0.825616       0.999035       0.992180       0.983157       0.991364       0.980962     
  0.956578       0.940882       0.999490       0.999760       0.999766       0.228409       0.544173       0.671724       0.837900       0.869489     
  0.935303       0.962418       0.998850       0.724435       0.997310       0.987327       0.976521       0.984623       0.970851       0.931804     
  0.908779       0.999001       0.999513       0.999516     
 
  0.212920       0.518547       0.651858       0.827479       0.861902       0.931240       0.960239       0.998773       0.695149       0.997197     
  0.987057       0.977729       0.983176       0.967031       0.926414       0.902737       0.998887       0.999491       0.999524       0.199582     
  0.502304       0.636481       0.817047       0.855840       0.928746       0.958245       0.998655       0.703677       0.997022       0.985927     
  0.974291       0.981987       0.965127       0.921093       0.895905       0.998788       0.999439       0.999482       0.219060       0.520550     
  0.664133       0.842945       0.877623       0.940884       0.967575       0.998759       0.732125       0.998063       0.987577       0.975274     
  0.984551       0.967814       0.930899       0.908325       0.998899       0.999509       0.999551       0.184935       0.481816       0.617877     
  0.804818       0.848162       0.925096       0.955603       0.998499       0.705309       0.996787       0.984723       0.971489       0.980524     
  0.962710       0.915041       0.888177       0.998654       0.999371       0.999426       0.268173       0.585125       0.717610       0.874184     
  0.903275       0.955590       0.976889       0.999116       0.788367       0.998825       0.990142       0.978846       0.988289       0.973908     
  0.944177       0.925293       0.999214       0.999654       0.999686       0.172148       0.453607       0.601207       0.800558       0.844201     
  0.921494       0.954599       0.998276       0.675379       0.996796       0.984189       0.970694       0.979432       0.960260       0.913187     
  0.885567       0.998475       0.999299       0.999356     
 
  0.160983       0.430776       0.584326       0.793171       0.840491       0.919734       0.954012       0.998257       0.660609       0.996842     
  0.984100       0.973062       0.978168       0.956045       0.907800       0.879868       0.998324       0.999287       0.999385       0.148996     
  0.413319       0.565423       0.778949       0.831675       0.915582       0.950835       0.998093       0.662716       0.996569       0.982632     
  0.968484       0.976423       0.953514       0.900954       0.871084       0.998181       0.999211       0.999327       0.164303       0.432035     
  0.594642       0.807088       0.854249       0.928465       0.960850       0.998241       0.687176       0.997693       0.984494       0.969211     
  0.979507       0.956848       0.912081       0.885127       0.998328       0.999307       0.999411       0.136018       0.391377       0.543746     
  0.763774       0.821981       0.910568       0.947264       0.997874       0.658905       0.996249       0.981081       0.964453       0.974423     
  0.950293       0.893431       0.861587       0.997982       0.999116       0.999251       0.209265       0.502271       0.656101       0.844217     
  0.883390       0.945562       0.971717       0.998747       0.747158       0.998573       0.987648       0.973612       0.984355       0.964956     
  0.928692       0.906076       0.998803       0.999511       0.999587       0.123442       0.361491       0.524365       0.758049       0.816924     
  0.906115       0.945867       0.997554       0.626000       0.996241       0.980374       0.963750       0.972942       0.946849       0.890384     
  0.857677       0.997691       0.999013       0.999159     
 
  0.115897       0.342590       0.512362       0.755824       0.819085       0.907982       0.947817       0.997671       0.632242       0.996523     
  0.980609       0.967700       0.972202       0.942547       0.885720       0.853234       0.997492       0.999023       0.999219       0.105636     
  0.325026       0.489609       0.736358       0.806257       0.901353       0.942848       0.997457       0.624982       0.996107       0.978697     
  0.961839       0.969660       0.939268       0.876873       0.841854       0.997294       0.998914       0.999139       0.117420       0.343307     
  0.519415       0.766091       0.828885       0.914543       0.953246       0.997656       0.642141       0.997284       0.980761       0.961957     
  0.973287       0.943363       0.889383       0.857525       0.997496       0.999041       0.999241       0.945470E-001  0.302741       0.465113     
  0.717646       0.793896       0.894477       0.937998       0.997165       0.613596       0.995672       0.976682       0.956063       0.966961     
  0.935075       0.867570       0.830243       0.997001       0.998782       0.999038       0.157041       0.416444       0.587796       0.809142     
  0.861217       0.934002       0.965650       0.998330       0.703680       0.998280       0.984625       0.967388       0.979457       0.953923     
  0.909863       0.882968       0.998206       0.999322       0.999465       0.830844E-001  0.272552       0.443892       0.710827       0.788131     
  0.889374       0.936375       0.996737       0.579195       0.995660       0.975792       0.955595       0.965046       0.930432       0.863191     
  0.824951       0.996543       0.998641       0.998922     
 
  0.787011E-001  0.258550       0.439109       0.716649       0.798202       0.896135       0.941803       0.997063       0.609002       0.996239     
  0.976602       0.961480       0.965256       0.926374       0.860341       0.823284       0.996293       0.998690       0.999025       0.704388E-001
  0.242386       0.412505       0.690138       0.779890       0.886108       0.934337       0.996800       0.590301       0.995637       0.974125     
  0.954348       0.961591       0.922267       0.848908       0.808453       0.996037       0.998536       0.998917       0.794162E-001  0.259544     
  0.441947       0.720847       0.802180       0.899400       0.944932       0.997053       0.599861       0.996848       0.976370       0.953437     
  0.965786       0.927245       0.862803       0.825665       0.996323       0.998701       0.999038       0.614219E-001  0.221274       0.385829     
  0.667096       0.764296       0.877039       0.927899       0.996435       0.573016       0.995065       0.971514       0.946371       0.957977     
  0.916965       0.837377       0.794167       0.995622       0.998354       0.998787       0.113107       0.332309       0.515259       0.769520     
  0.837283       0.921077       0.958763       0.997902       0.660211       0.997950       0.981061       0.960135       0.973491       0.940694     
  0.887626       0.856009       0.997366       0.999078       0.999320       0.517624E-001  0.192236       0.364102       0.660036       0.758358     
  0.871526       0.926300       0.995894       0.536756       0.995065       0.970447       0.946182       0.955635       0.910890       0.831693     
  0.787678       0.994917       0.998167       0.998641     
 
  0.490967E-001  0.181013       0.366026       0.675602       0.777568       0.883978       0.935918       0.996504       0.589727       0.995982     
  0.972019       0.954039       0.957112       0.906902       0.831087       0.789598       0.994559       0.998270       0.998797       0.430211E-001
  0.167830       0.336064       0.640163       0.752354       0.869677       0.925262       0.996196       0.559357       0.995162       0.968831     
  0.945727       0.951901       0.901919       0.816425       0.770315       0.994258       0.998054       0.998657       0.496547E-001  0.183295     
  0.364114       0.671141       0.774105       0.883017       0.935938       0.996501       0.562951       0.996398       0.971216       0.943406     
  0.956694       0.907945       0.831656       0.788882       0.994674       0.998265       0.998799       0.362323E-001  0.149400       0.308222     
  0.612044       0.732963       0.858071       0.916901       0.995765       0.538251       0.994433       0.965471       0.935216       0.947099     
  0.895356       0.802176       0.752749       0.993686       0.997807       0.998490       0.769822E-001  0.252134       0.439787       0.725145     
  0.811792       0.906886       0.951142       0.997510       0.620679       0.997599       0.976869       0.951691       0.966206       0.924807     
  0.861365       0.824579       0.996189       0.998765       0.999147       0.288551E-001  0.123425       0.287259       0.605171       0.727018     
  0.852219       0.915455       0.995121       0.499227       0.994452       0.964213       0.935159       0.944287       0.887577       0.795073     
  0.745064       0.992623       0.997560       0.998310     
 
  0.274876E-001  0.115065       0.296748       0.633390       0.757322       0.871629       0.930238       0.996049       0.576007       0.995754     
  0.966881       0.945109       0.947655       0.883924       0.797937       0.752386       0.992115       0.997749       0.998535       0.235461E-001
  0.105794       0.264560       0.587747       0.724149       0.852326       0.915826       0.995705       0.534500       0.994694       0.962831     
  0.935722       0.940440       0.878060       0.779578       0.727843       0.991805       0.997449       0.998356       0.281413E-001  0.118950     
  0.289954       0.617791       0.744694       0.865339       0.926233       0.996053       0.531364       0.995930       0.965281       0.931575     
  0.945797       0.885301       0.795967       0.747393       0.992418       0.997714       0.998522       0.189408E-001  0.912136E-001  0.236743     
  0.553869       0.700052       0.837558       0.905026       0.995218       0.508769       0.993775       0.958591       0.922449       0.934125     
  0.870079       0.762177       0.706485       0.991038       0.997119       0.998146       0.489106E-001  0.180092       0.364903       0.676849     
  0.785153       0.891599       0.942896       0.997192       0.587118       0.997236       0.972028       0.941800       0.957443       0.906109     
  0.831070       0.788822       0.994582       0.998370       0.998947       0.139834E-001  0.703706E-001  0.217777       0.547334       0.694208     
  0.831456       0.903836       0.994492       0.467471       0.993819       0.957096       0.922238       0.930755       0.860343       0.753445     
  0.697465       0.989481       0.996796       0.997927     
 
  0.133445E-001  0.645423E-001  0.234083       0.590228       0.737189       0.858942       0.924691       0.995694       0.567961       0.995544     
  0.961111       0.933966       0.936676       0.857149       0.760688       0.711616       0.988746       0.997105       0.998235       0.111924E-001
  0.591037E-001  0.201020       0.533468       0.695032       0.833881       0.905943       0.995320       0.515785       0.994226       0.956056     
  0.924161       0.926957       0.850432       0.738313       0.681180       0.988491       0.996697       0.998010       0.140539E-001  0.693099E-001
  0.222745       0.561472       0.713738       0.846170       0.915702       0.995703       0.504628       0.995437       0.958558       0.918318     
  0.932837       0.859058       0.755683       0.701343       0.989395       0.997025       0.998202       0.849465E-002  0.489211E-001  0.174659     
  0.493774       0.665504       0.815348       0.892204       0.994789       0.483967       0.993079       0.950922       0.908949       0.918798     
  0.840872       0.717482       0.655763       0.987483       0.996259       0.997751       0.284522E-001  0.119220       0.293613       0.625162     
  0.757237       0.875072       0.933956       0.996943       0.558766       0.996857       0.966547       0.930912       0.946992       0.884362     
  0.796650       0.748806       0.992428       0.997875       0.998717       0.565987E-002  0.344807E-001  0.158657       0.487676       0.659933     
  0.809151       0.891423       0.994001       0.441510       0.993162       0.949054       0.907494       0.914773       0.828937       0.706922     
  0.645276       0.985262       0.995841       0.997486     
 
  0.540812E-002  0.311728E-001  0.178748       0.543135       0.714635       0.844409       0.918319       0.995412       0.562546       0.995311     
  0.954537       0.921393       0.923551       0.826576       0.718641       0.665989       0.984272       0.996301       0.997888       0.442035E-002
  0.282162E-001  0.147203       0.477530       0.664137       0.813676       0.895195       0.995011       0.498994       0.993727       0.948355     
  0.910282       0.911228       0.818774       0.692516       0.630375       0.984061       0.995763       0.997611       0.593780E-002  0.350792E-001
  0.164807       0.503011       0.680935       0.825193       0.904189       0.995422       0.480597       0.994905       0.950889       0.902683     
  0.917650       0.828956       0.710815       0.650961       0.985378       0.996168       0.997833       0.312333E-002  0.221545E-001  0.123686     
  0.432917       0.629128       0.791120       0.878302       0.994441       0.461198       0.992330       0.942227       0.893034       0.900976     
  0.807499       0.668288       0.601043       0.982754       0.995191       0.997294       0.147197E-001  0.714113E-001  0.228457       0.570691     
  0.727788       0.857052       0.924203       0.996743       0.533558       0.996452       0.960296       0.918293       0.934715       0.859302     
  0.758027       0.704635       0.989565       0.997259       0.998451       0.181059E-002  0.138958E-001  0.111178       0.427413       0.624113     
  0.785087       0.878121       0.993606       0.419880       0.992471       0.939826       0.888822       0.896200       0.793106       0.655681     
  0.588990       0.979644       0.994654       0.996977     
 
  0.179382E-002  0.128884E-001  0.131807       0.490161       0.687290       0.826622       0.909985       0.995155       0.557777       0.995011     
  0.946766       0.903984       0.907983       0.792994       0.672087       0.615317       0.978627       0.995306       0.997489       0.140555E-002
  0.112527E-001  0.104474       0.421223       0.631318       0.791505       0.883407       0.994728       0.482273       0.993178       0.939781     
  0.893872       0.893437       0.783755       0.643260       0.576621       0.978330       0.994626       0.997159       0.206272E-002  0.150840E-001
  0.118062       0.444122       0.646364       0.802325       0.891624       0.995163       0.457434       0.994320       0.942400       0.885244     
  0.900455       0.795589       0.662459       0.597544       0.980194       0.995123       0.997414       0.913033E-003  0.825455E-002  0.846249E-001
  0.373103       0.591077       0.764842       0.863227       0.994119       0.439311       0.991511       0.932639       0.875163       0.880946     
  0.770648       0.615849       0.543829       0.976646       0.993892       0.996778       0.662870E-002  0.380271E-001  0.172470       0.515125     
  0.697163       0.837679       0.913746       0.996560       0.511397       0.996023       0.953407       0.904598       0.920811       0.831365     
  0.716083       0.657383       0.985862       0.996509       0.998150       0.441514E-003  0.448681E-002  0.755454E-001  0.368495       0.587006     
  0.759260       0.863915       0.993242       0.401248       0.991729       0.929397       0.865350       0.875355       0.753647       0.601197     
  0.530313       0.972388       0.993211       0.996400     
 
  0.467959E-003  0.443523E-002  0.931943E-001  0.431001       0.653791       0.804548       0.898807       0.994896       0.552844       0.994602     
  0.937448       0.879820       0.889604       0.756421       0.620894       0.559454       0.971606       0.994073       0.997031       0.339898E-003
  0.359759E-002  0.718581E-001  0.365381       0.596468       0.767170       0.870438       0.994441       0.466076       0.992571       0.930028     
  0.872097       0.873586       0.745335       0.590852       0.520414       0.970950       0.993247       0.996648       0.559696E-003  0.529690E-002
  0.818544E-001  0.385589       0.609870       0.777333       0.877900       0.994901       0.435058       0.993678       0.932987       0.865253     
  0.881227       0.758936       0.610903       0.541504       0.973537       0.993855       0.996942       0.199490E-003  0.241934E-002  0.559576E-001
  0.315475       0.551582       0.736458       0.847015       0.993793       0.419398       0.990627       0.922086       0.854815       0.858725     
  0.730353       0.560677       0.484804       0.968795       0.992319       0.996196       0.249338E-002  0.174201E-001  0.126267       0.459133     
  0.665351       0.816908       0.902628       0.996374       0.493540       0.995576       0.945782       0.888962       0.905279       0.800480     
  0.670963       0.607294       0.981088       0.995601       0.997811       0.763207E-004  0.111028E-002  0.497244E-001  0.311745       0.548438     
  0.731358       0.848626       0.992874       0.385060       0.990922       0.917310       0.833299       0.852239       0.710604       0.543999     
  0.469951       0.963061       0.991460       0.995748     
 
  0.947417E-004  0.125965E-002  0.634178E-001  0.369034       0.614886       0.778343       0.884692       0.994622       0.547705       0.994052     
  0.926098       0.844589       0.868684       0.717653       0.566720       0.500556       0.963116       0.992582       0.996512       0.610031E-004
  0.916287E-003  0.482183E-001  0.311860       0.560150       0.740920       0.856377       0.994139       0.451331       0.991894       0.918318     
  0.836942       0.851992       0.704425       0.536865       0.463523       0.961739       0.991606       0.996076       0.116631E-003  0.150322E-002
  0.553420E-001  0.329580       0.572173       0.750554       0.863153       0.994626       0.413942       0.992980       0.922814       0.842808     
  0.860320       0.719812       0.557677       0.484661       0.965232       0.992346       0.996419       0.311161E-004  0.554820E-003  0.360093E-001
  0.262024       0.511292       0.706219       0.829752       0.993450       0.400186       0.989670       0.910753       0.832155       0.834720     
  0.687581       0.504564       0.426018       0.959000       0.990451       0.995553       0.768202E-003  0.676600E-002  0.903100E-001  0.404410     
  0.632684       0.794901       0.890887       0.996179       0.479500       0.995103       0.937240       0.868625       0.888382       0.767262     
  0.623808       0.555752       0.975105       0.994521       0.997436       0.857235E-005  0.211180E-003  0.318828E-001  0.259165       0.509071     
  0.701632       0.832319       0.992486       0.370376       0.990015       0.902268       0.780711       0.827295       0.665037       0.486018     
  0.410091       0.951429       0.989378       0.995012     
 
  0.148357E-004  0.287452E-003  0.412113E-001  0.306281       0.570620       0.747608       0.867213       0.994326       0.542532       0.993285     
  0.910357       0.779992       0.845049       0.676612       0.510102       0.439596       0.952883       0.990781       0.995912       0.814715E-005
  0.182601E-003  0.311277E-001  0.259409       0.520603       0.711402       0.840103       0.993814       0.439420       0.991042       0.901543     
  0.765358       0.828036       0.661195       0.481202       0.405605       0.950469       0.989641       0.995418       0.182044E-004  0.334650E-003
  0.363864E-001  0.276921       0.533546       0.722014       0.847444       0.994334       0.396295       0.992227       0.911139       0.811283     
  0.837635       0.678176       0.503207       0.427615       0.954908       0.990552       0.995840       0.349708E-005  0.965100E-004  0.224354E-001
  0.213458       0.470539       0.674123       0.811471       0.993085       0.382793       0.988631       0.897538       0.797574       0.808851     
  0.642329       0.448092       0.368227       0.946821       0.988233       0.994840       0.185336E-003  0.215835E-002  0.630793E-001  0.351524     
  0.598994       0.771393       0.878411       0.995972       0.467672       0.994596       0.927296       0.838784       0.870009       0.731606     
  0.574809       0.503082       0.967628       0.993240       0.997019       0.659095E-006  0.299783E-004  0.197918E-001  0.211419       0.469118     
  0.669987       0.814985       0.992071       0.357454       0.988990       0.883698       0.706841       0.800416       0.617006       0.427921     
  0.351538       0.936986       0.986904       0.994181     
 
  0.200014E-005  0.538522E-004  0.256362E-001  0.246720       0.522738       0.712936       0.846591       0.994004       0.537519       0.992206     
  0.887707       0.672435       0.819120       0.634162       0.453148       0.379256       0.940859       0.988655       0.995214       0.932949E-006
  0.292488E-004  0.191639E-001  0.208753       0.476969       0.677631       0.820446       0.993455       0.428963       0.989795       0.875075     
  0.634426       0.801582       0.616779       0.425250       0.348061       0.937257       0.987319       0.994631       0.227097E-005  0.594042E-004
  0.233599E-001  0.229158       0.494729       0.692069       0.830935       0.994026       0.382098       0.991393       0.896331       0.756256     
  0.813477       0.634983       0.449144       0.372186       0.942454       0.988459       0.995195       0.328337E-006  0.127165E-004  0.135900E-001
  0.171023       0.430260       0.640696       0.792430       0.992700       0.367871       0.987486       0.880753       0.736640       0.781503     
  0.595697       0.393062       0.313341       0.932132       0.985649       0.994048       0.347481E-004  0.566612E-003  0.432738E-001  0.301980     
  0.564676       0.746496       0.865223       0.995754       0.455862       0.994029       0.915018       0.791303       0.850365       0.694248     
  0.525255       0.450741       0.958557       0.991745       0.996557       0.464779E-007  0.307611E-005  0.118937E-001  0.169085       0.428749     
  0.636371       0.796361       0.991627       0.346531       0.987765       0.860503       0.609107       0.771801       0.567823       0.371461     
  0.295968       0.919696       0.984011       0.993234     
 
  0.166087E-006  0.821812E-005  0.150802E-001  0.191724       0.471606       0.673784       0.822212       0.993606       0.532622       0.990319     
  0.851389       0.512710       0.790735       0.590274       0.396537       0.320503       0.926781       0.986143       0.994301       0.567045E-007
  0.378317E-005  0.111102E-001  0.161529       0.429832       0.639060       0.796690       0.992993       0.419651       0.987403       0.830175     
  0.441397       0.772518       0.571110       0.369818       0.292087       0.921807       0.984574       0.993534       0.156936E-006  0.841305E-005
  0.145010E-001  0.185914       0.455150       0.660111       0.813120       0.993683       0.370996       0.990390       0.876230       0.670284     
  0.787617       0.590302       0.395774       0.318636       0.927542       0.986007       0.994460       0.124263E-007  0.130122E-005  0.795007E-002
  0.134332       0.390399       0.605687       0.772390       0.992269       0.356206       0.986103       0.856791       0.634136       0.752569     
  0.547774       0.339916       0.261792       0.914494       0.982632       0.993136       0.492058E-005  0.120896E-003  0.290229E-001  0.255968     
  0.529676       0.720061       0.851247       0.995514       0.444853       0.993386       0.900105       0.729222       0.829368       0.655136     
  0.475390       0.399053       0.947583       0.990000       0.996040       0.118350E-008  0.255390E-006  0.678978E-002  0.130855       0.386343     
  0.599189       0.774972       0.991127       0.338136       0.986133       0.830655       0.491383       0.740821       0.517827       0.316826     
  0.243285       0.899380       0.980604       0.992128     
 
  0.983886E-008  0.951636E-006  0.845021E-002  0.144241       0.419518       0.631008       0.794418       0.993109       0.527888       0.987221     
  0.802469       0.342624       0.760563       0.546032       0.342464       0.265834       0.910758       0.983245       0.993124       0.233635E-008
  0.354294E-006  0.612640E-002  0.120754       0.381581       0.596723       0.769301       0.992399       0.411649       0.983578       0.774270     
  0.270493       0.741590       0.525321       0.317150       0.240238       0.904240       0.981405       0.992094       0.751430E-008  0.912682E-006
  0.869586E-002  0.147379       0.414543       0.625768       0.793367       0.993305       0.362464       0.989136       0.851457       0.565116     
  0.760255       0.545418       0.344524       0.268254       0.910412       0.983186       0.993636       0.285276E-009  0.908285E-007  0.448234E-002
  0.102787       0.350314       0.568360       0.750304       0.991784       0.347197       0.984188       0.821358       0.480491       0.722193     
  0.500041       0.289968       0.214578       0.894245       0.979166       0.992059       0.544679E-006  0.220576E-004  0.191060E-001  0.214438     
  0.494517       0.692422       0.836571       0.995256       0.435825       0.992686       0.883786       0.662050       0.807357       0.615233     
  0.426582       0.349443       0.934742       0.988000       0.995479       0.174400E-010  0.138949E-007  0.369060E-002  0.975550E-001  0.342489     
  0.558295       0.750111       0.990537       0.331700       0.983640       0.789992       0.351825       0.707884       0.468495       0.265854     
  0.195271       0.876427       0.976669       0.990770     
 
  0.983767E-008  0.744215E-007  0.446156E-002  0.104203       0.366854       0.583920       0.762267       0.992392       0.523115       0.981909     
  0.735817       0.182145       0.728341       0.501243       0.291222       0.215580       0.892495       0.979878       0.991444       0.233558E-008
  0.205052E-007  0.318558E-002  0.865578E-001  0.332764       0.550261       0.737709       0.991577       0.404103       0.977772       0.706998     
  0.138291       0.708596       0.479241       0.267574       0.192902       0.884239       0.977727       0.990155       0.751124E-008  0.688869E-007
  0.496412E-002  0.112923       0.371991       0.587807       0.770478       0.992871       0.355666       0.987315       0.819237       0.442548     
  0.730953       0.500258       0.295388       0.220970       0.890869       0.979912       0.992669       0.285142E-009  0.356985E-008  0.237749E-002
  0.750695E-001  0.308256       0.526271       0.723562       0.991136       0.339488       0.980371       0.761852       0.278228       0.689564     
  0.452494       0.242982       0.171265       0.871323       0.975137       0.990534       0.544519E-006  0.348724E-005  0.121949E-001  0.176283     
  0.458055       0.662640       0.820418       0.994970       0.429426       0.991863       0.865148       0.588227       0.783949       0.574447     
  0.378604       0.301545       0.919815       0.985690       0.994855       0.174344E-010  0.374637E-009  0.189636E-002  0.694383E-001  0.297762     
  0.513175       0.720965       0.989781       0.326309       0.979463       0.731861       0.202811       0.672848       0.419707       0.218889     
  0.152343       0.850494       0.972098       0.988959     
 
  0.983649E-008  0.470891E-008  0.225592E-002  0.726568E-001  0.316268       0.533973       0.726389       0.991266       0.518280       0.973579     
  0.655172       0.743770E-001  0.694769       0.457007       0.244607       0.171519       0.872241       0.976055       0.989018       0.233483E-008
  0.945721E-009  0.158922E-002  0.598407E-001  0.285973       0.501387       0.702836       0.990413       0.397085       0.969664       0.632368     
  0.577611E-001  0.674344       0.434066       0.222821       0.151750       0.862103       0.973555       0.987609       0.750871E-008  0.447105E-008
  0.273744E-002  0.839948E-001  0.329558       0.547296       0.744893       0.992348       0.350064       0.984579       0.777822       0.312733     
  0.700447       0.455955       0.250147       0.178642       0.869202       0.976204       0.991498       0.285032E-009  0.113356E-009  0.120672E-002
  0.525429E-001  0.266597       0.480597       0.692337       0.990137       0.333239       0.973480       0.682278       0.119812       0.655443     
  0.406320       0.200681       0.133565       0.846113       0.970560       0.988246       0.544408E-006  0.510855E-006  0.755861E-002  0.141844     
  0.420310       0.630493       0.802204       0.994638       0.424823       0.990613       0.836433       0.471790       0.759374       0.533872     
  0.332733       0.256573       0.903118       0.983071       0.994115       0.174299E-010  0.786117E-011  0.939472E-003  0.474199E-001  0.254648     
  0.465419       0.688169       0.988747       0.321839       0.972986       0.660114       0.909658E-001  0.636631       0.372777       0.177521     
  0.115966       0.822042       0.966916       0.986516     
 
  0.983535E-008  0.459331E-008  0.109272E-002  0.487315E-001  0.268748       0.481884       0.686996       0.989612       0.513251       0.961926     
  0.564535       0.208708E-001  0.659953       0.413599       0.202887       0.133711       0.849965       0.971732       0.985750       0.233417E-008
  0.921278E-009  0.760312E-003  0.397672E-001  0.242208       0.450935       0.664991       0.988854       0.390403       0.959105       0.552221     
  0.183006E-001  0.639009       0.390099       0.183131       0.116807       0.837806       0.968848       0.984431       0.750660E-008  0.445194E-008
  0.146155E-002  0.604856E-001  0.288157       0.504493       0.716517       0.991684       0.345175       0.980470       0.724543       0.187665     
  0.668858       0.412736       0.209201       0.141587       0.845371       0.972019       0.990010       0.284940E-009  0.111777E-009  0.587140E-003
  0.351464E-001  0.226670       0.432334       0.656945       0.988633       0.327646       0.963160       0.589699       0.348626E-001  0.620009     
  0.361779       0.163364       0.101654       0.818602       0.965382       0.985023       0.544318E-006  0.509585E-006  0.453321E-002  0.111164     
  0.381222       0.595449       0.781245       0.994234       0.420983       0.988544       0.796079       0.334757       0.733530       0.493712     
  0.289320       0.214856       0.884680       0.980109       0.993181       0.174261E-010  0.774477E-011  0.449451E-003  0.309831E-001  0.214255     
  0.416077       0.652225       0.987371       0.317764       0.964360       0.582900       0.320966E-001  0.599486       0.328032       0.141828     
  0.859973E-001  0.791113       0.961069       0.983443     
 
  0.983420E-008  0.442983E-008  0.507456E-003  0.313639E-001  0.225176       0.428508       0.644058       0.987026       0.507845       0.945993     
  0.466409       0.403557E-002  0.624081       0.371448       0.166313       0.102135       0.825759       0.966866       0.981356       0.233354E-008
  0.888909E-009  0.349634E-003  0.253247E-001  0.202252       0.399636       0.623939       0.986522       0.383943       0.944828       0.464074     
  0.379279E-002  0.602783       0.347757       0.148685       0.879810E-001  0.811467       0.963565       0.980274       0.750481E-008  0.442514E-008
  0.759667E-003  0.421123E-001  0.248819       0.460040       0.685514       0.990816       0.340872       0.974584       0.658905       0.873659E-001
  0.636451       0.371046       0.172941       0.110031       0.819497       0.967340       0.988097       0.284853E-009  0.109196E-009  0.274357E-003
  0.224519E-001  0.189662       0.382756       0.617894       0.986357       0.322203       0.949102       0.490772       0.668175E-002  0.583610     
  0.319347       0.131228       0.755068E-001  0.788967       0.959567       0.980709       0.544251E-006  0.507949E-006  0.264214E-002  0.848924E-001
  0.341918       0.558151       0.757936       0.993755       0.417924       0.985866       0.751144       0.216943       0.706656       0.454331     
  0.249042       0.177103       0.864560       0.976791       0.992088       0.174226E-010  0.758195E-011  0.207282E-003  0.193208E-001  0.177477     
  0.366152       0.613271       0.985435       0.313783       0.952788       0.498911       0.759248E-002  0.561747       0.285938       0.111785     
  0.621257E-001  0.757959       0.954522       0.979501     
 
  0.983305E-008  0.417781E-008  0.228048E-003  0.194390E-001  0.186475       0.375451       0.598298       0.983147       0.501961       0.925275     
  0.366958       0.366804E-003  0.587672       0.331218       0.135091       0.766501E-001  0.799934       0.961462       0.975551       0.233299E-008
  0.845350E-009  0.156199E-003  0.155498E-001  0.167058       0.349321       0.581056       0.983365       0.377712       0.927304       0.377523     
  0.479842E-003  0.566341       0.307769       0.119608       0.650413E-001  0.783458       0.957734       0.975133       0.750329E-008  0.436757E-008
  0.387242E-003  0.284207E-001  0.212618       0.414859       0.652129       0.989546       0.336981       0.966107       0.582250       0.303851E-001
  0.603647       0.331492       0.141680       0.840403E-001  0.791941       0.962179       0.985530       0.284775E-009  0.105103E-009  0.123605E-003
  0.137443E-001  0.156545       0.333418       0.575786       0.982933       0.316841       0.930632       0.390495       0.661524E-003  0.546799     
  0.279657       0.104339       0.548927E-001  0.757666       0.953126       0.975006       0.544196E-006  0.505164E-006  0.150688E-002  0.633018E-001
  0.303698       0.519271       0.732482       0.993141       0.415284       0.982150       0.699646       0.125245       0.679128       0.416279     
  0.212616       0.143969       0.843001       0.973129       0.990758       0.174194E-010  0.736040E-011  0.922873E-004  0.115694E-001  0.145208     
  0.317282       0.572261       0.982769       0.309841       0.938076       0.412727       0.111297E-002  0.524070       0.247138       0.872377E-001
  0.438620E-001  0.723135       0.947307       0.974575     
 
  0.978360E-008  0.383866E-008  0.992726E-004  0.116227E-001  0.152681       0.323759       0.549962       0.977381       0.495439       0.899142     
  0.271943       0.441978E-004  0.551008       0.293251       0.108874       0.565758E-001  0.772717       0.955489       0.968122       0.232108E-008
  0.792266E-009  0.678248E-004  0.923846E-002  0.136662       0.301020       0.536744       0.979048       0.371582       0.906095       0.294355     
  0.588595E-004  0.530037       0.270457       0.954985E-001  0.472627E-001  0.754041       0.951345       0.968889       0.746743E-008  0.429647E-008
  0.194132E-003  0.186512E-001  0.180129       0.370171       0.617214       0.987856       0.333370       0.955555       0.503769       0.770028E-002
  0.570821       0.294428       0.115221       0.631604E-001  0.762977       0.956546       0.982371       0.281878E-009  0.993211E-010  0.534390E-004
  0.808375E-002  0.127555       0.285490       0.530993       0.977833       0.311534       0.907115       0.293945       0.120626E-003  0.509937     
  0.242992       0.822714E-001  0.391134E-001  0.725036       0.946033       0.967697       0.543288E-006  0.501321E-006  0.844369E-003  0.460986E-001
  0.267375       0.479271       0.704957       0.992342       0.412735       0.976930       0.640754       0.602011E-001  0.651164       0.379843     
  0.180249       0.115523       0.820181       0.969127       0.989110       0.172468E-010  0.710496E-011  0.394366E-004  0.667957E-002  0.117491     
  0.270579       0.529694       0.979106       0.305797       0.919881       0.328853       0.174053E-003  0.486835       0.211865       0.675728E-001
  0.303159E-001  0.687067       0.939420       0.968568     
 
  0.972677E-008  0.340730E-008  0.418343E-004  0.673871E-002  0.123617       0.274513       0.499614       0.969056       0.488074       0.867193     
  0.188632       0.315450E-005  0.514444       0.257852       0.871944E-001  0.411419E-001  0.744376       0.948921       0.958935       0.230669E-008
  0.725390E-009  0.285871E-004  0.533825E-002  0.110753       0.255352       0.490948       0.972904       0.365302       0.879821       0.216023     
  0.375555E-005  0.494096       0.236029       0.758139E-001  0.338254E-001  0.723520       0.944379       0.961116       0.742534E-008  0.419465E-008
  0.957331E-004  0.119310E-001  0.151468       0.326697       0.580979       0.985588       0.329979       0.942475       0.424987       0.147841E-002
  0.538266       0.260095       0.931984E-001  0.467826E-001  0.732936       0.950453       0.978532       0.277733E-009  0.921239E-010  0.222338E-004
  0.461141E-002  0.102741       0.240210       0.484309       0.970494       0.306151       0.878160       0.207872       0.302514E-005  0.473496     
  0.209567       0.644913E-001  0.273933E-001  0.691411       0.938282       0.958631       0.542273E-006  0.495497E-006  0.467316E-003  0.328197E-001
  0.233595       0.438727       0.675524       0.991260       0.410251       0.969768       0.575016       0.232289E-001  0.622999       0.345283     
  0.151962       0.916163E-001  0.796316       0.964793       0.987052       0.170244E-010  0.678088E-011  0.161929E-004  0.374628E-002  0.941073E-001
  0.226982       0.486081       0.974189       0.301571       0.897750       0.250224       0.834075E-005  0.450414       0.180246       0.520913E-001
  0.205675E-001  0.650241       0.930883       0.961344     
 
  0.965125E-008  0.294379E-008  0.169426E-004  0.382532E-002  0.990775E-001  0.229156       0.448993       0.958203       0.479896       0.830906     
  0.124487       0.723737E-007  0.478577       0.225335       0.695314E-001  0.295516E-001  0.715225       0.941791       0.948525       0.228286E-008
  0.648311E-009  0.114865E-004  0.301176E-002  0.887406E-001  0.212687       0.443268       0.963723       0.358547       0.846627       0.146357     
  0.898325E-007  0.458647       0.204576       0.599363E-001  0.238907E-001  0.692238       0.936790       0.951394       0.737557E-008  0.406968E-008
  0.461245E-004  0.746129E-002  0.126507       0.285109       0.543788       0.982574       0.326735       0.926721       0.347846       0.185144E-003
  0.506236       0.228653       0.751230E-001  0.342071E-001  0.702202       0.943915       0.973937       0.272009E-009  0.838268E-010  0.883147E-005
  0.257485E-002  0.817922E-001  0.198539       0.436615       0.960215       0.300465       0.843659       0.137895       0.399292E-007  0.437911     
  0.179505       0.503801E-001  0.189160E-001  0.657168       0.929859       0.947902       0.541077E-006  0.488079E-006  0.257275E-003  0.229040E-001
  0.202868       0.398511       0.644771       0.989830       0.407789       0.960748       0.506671       0.688215E-002  0.594930       0.312805     
  0.127616       0.719248E-001  0.771627       0.960144       0.984562       0.167388E-010  0.639721E-011  0.634078E-005  0.205679E-002  0.745607E-001
  0.187082       0.441715       0.967415       0.297040       0.871082       0.179978       0.354083E-006  0.415065       0.152274       0.400634E-001
  0.137369E-001  0.613172       0.921697       0.952761     
 
  0.951908E-008  0.245615E-008  0.651943E-005  0.212902E-002  0.783979E-001  0.187734       0.397417       0.943000       0.470406       0.787300     
  0.746238E-001  0.127245E-008  0.443437       0.195762       0.553006E-001  0.210377E-001  0.685646       0.934029       0.936072       0.224337E-008
  0.564086E-009  0.438113E-005  0.167940E-002  0.703326E-001  0.174022       0.394791       0.950675       0.351155       0.806371       0.906334E-001
  0.229911E-008  0.424166       0.176272       0.473101E-001  0.167326E-001  0.660588       0.928584       0.939592       0.731001E-008  0.391086E-008
  0.217791E-004  0.462323E-002  0.105228       0.246336       0.506195       0.978557       0.323462       0.907941       0.274607       0.166594E-004
  0.475161       0.200236       0.605351E-001  0.248051E-001  0.671152       0.936987       0.968465       0.264554E-009  0.750347E-010  0.334312E-005
  0.143510E-002  0.645433E-001  0.161602       0.389575       0.946798       0.294411       0.804530       0.865424E-001  0.115899E-008  0.403828     
  0.152916       0.393617E-001  0.129602E-001  0.622725       0.920829       0.935709       0.539503E-006  0.478034E-006  0.142286E-003  0.158242E-001
  0.175725       0.359846       0.613706       0.988018       0.405347       0.950262       0.439652       0.161935E-002  0.567442       0.282670     
  0.107039       0.561001E-001  0.746376       0.955227       0.981679       0.163531E-010  0.599303E-011  0.237081E-005  0.112889E-002  0.586403E-001
  0.151932       0.398072       0.958743       0.292179       0.840613       0.123126       0.215657E-007  0.381372       0.127934       0.308631E-001
  0.909699E-002  0.576373       0.911958       0.942883     
 
  0.936852E-008  0.194125E-008  0.233222E-005  0.115891E-002  0.605800E-001  0.149316       0.342279       0.918820       0.458210       0.729787     
  0.383582E-001  0.199167E-013  0.408576       0.168866       0.438714E-001  0.148774E-001  0.655761       0.925362       0.920235       0.220107E-008
  0.477214E-009  0.158319E-005  0.929938E-003  0.549661E-001  0.139588       0.345906       0.932481       0.342899       0.758275       0.512321E-001
  0.220142E-012  0.390796       0.151060       0.373350E-001  0.116583E-001  0.628927       0.919733       0.925776       0.722945E-008  0.373114E-008
  0.100178E-004  0.284999E-002  0.871757E-001  0.210750       0.468485       0.973250       0.320083       0.885874       0.208538       0.418466E-006
  0.445180       0.174805       0.488521E-001  0.178832E-001  0.640168       0.929697       0.962043       0.256623E-009  0.662678E-010  0.120343E-005
  0.799586E-003  0.503631E-001  0.129350       0.343351       0.929458       0.287878       0.760071       0.511644E-001  0.112697E-012  0.371316     
  0.129651       0.308070E-001  0.884005E-002  0.588542       0.911206       0.922170       0.537436E-006  0.466381E-006  0.790836E-004  0.108672E-001
  0.152081       0.323420       0.583003       0.985865       0.403012       0.938707       0.376691       0.279860E-003  0.540766       0.254964     
  0.898178E-001  0.435635E-001  0.720818       0.950078       0.978454       0.159400E-010  0.559172E-011  0.841517E-006  0.622592E-003  0.457046E-001
  0.121453       0.355172       0.947477       0.286876       0.805380       0.794842E-001  0.214639E-010  0.349410       0.106981       0.238588E-001
  0.600079E-002  0.540318       0.901697       0.931738     
 
  0.917476E-008  0.142245E-008  0.773802E-006  0.611199E-003  0.450843E-001  0.113980       0.283155       0.880132       0.441747       0.654648     
  0.168567E-001  0.192875E-021  0.374148       0.144647       0.347627E-001  0.104989E-001  0.625698       0.915441       0.900457       0.215323E-008
  0.384115E-009  0.539117E-006  0.511242E-003  0.421409E-001  0.109383       0.296615       0.906702       0.333198       0.700739       0.264594E-001
  0.147696E-020  0.358747       0.128872       0.295154E-001  0.812128E-002  0.597632       0.910151       0.909705       0.713239E-008  0.352880E-008
  0.452860E-005  0.177321E-002  0.721633E-001  0.179207       0.432098       0.966805       0.316588       0.861852       0.154757       0.496790E-008
  0.416828       0.152384       0.396111E-001  0.128914E-001  0.609649       0.922147       0.954999       0.248211E-009  0.564162E-010  0.408111E-006
  0.447524E-003  0.388234E-001  0.101840       0.298540       0.907292       0.280639       0.710318       0.284082E-001  0.167740E-019  0.340661     
  0.109579       0.242182E-001  0.603895E-002  0.555112       0.901028       0.907286       0.534792E-006  0.454704E-006  0.444788E-004  0.748492E-002
  0.131846       0.290005       0.553554       0.983491       0.400763       0.926789       0.322007       0.431590E-004  0.515310       0.229823     
  0.755858E-001  0.338030E-001  0.695292       0.944771       0.975056       0.154979E-010  0.505902E-011  0.280209E-006  0.347750E-003  0.353015E-001
  0.956846E-001  0.313562       0.932850       0.280992       0.765251       0.483422E-001  0.623170E-015  0.319455       0.891970E-001  0.185589E-001
  0.397260E-002  0.505524       0.890987       0.919287     
 
  0.891187E-008  0.963708E-009  0.237913E-006  0.313417E-003  0.320928E-001  0.830835E-001  0.223884       0.824950       0.420449       0.565704     
  0.615478E-002  0.192875E-021  0.340802       0.123236       0.275841E-001  0.743510E-002  0.595681       0.904089       0.877361       0.209443E-008
  0.300031E-009  0.175075E-006  0.282338E-003  0.317214E-001  0.838911E-001  0.249232       0.873440       0.322129       0.636675       0.123718E-001
  0.192875E-021  0.328515       0.109679       0.234322E-001  0.568906E-002  0.567155       0.899914       0.891923       0.702205E-008  0.330738E-008
  0.203305E-005  0.112537E-002  0.598655E-001  0.151994       0.398034       0.959434       0.313049       0.836950       0.113309       0.367555E-010
  0.390453       0.132888       0.323622E-001  0.934320E-002  0.580024       0.914449       0.947577       0.238881E-009  0.470714E-010  0.131931E-006
  0.254843E-003  0.296716E-001  0.792161E-001  0.257008       0.881345       0.272943       0.658267       0.151694E-001  0.192875E-021  0.312321     
  0.925621E-001  0.191766E-001  0.415905E-002  0.522973       0.890479       0.891711       0.531888E-006  0.442913E-006  0.253577E-004  0.520004E-002
  0.114693       0.259893       0.525721       0.980899       0.398591       0.914709       0.274761       0.596535E-005  0.491316       0.207279     
  0.639363E-001  0.263005E-001  0.670188       0.939376       0.971558       0.149973E-010  0.449353E-011  0.885869E-007  0.199183E-003  0.271189E-001
  0.746317E-001  0.274819       0.915608       0.274730       0.722605       0.281680E-001  0.294845E-020  0.291914       0.743506E-001  0.145649E-001
  0.266096E-002  0.472498       0.880019       0.906078     
 
  0.861378E-008  0.597150E-009  0.680772E-007  0.156034E-003  0.218774E-001  0.579363E-001  0.169633       0.756627       0.395181       0.472050     
  0.193171E-002  0.192875E-021  0.309262       0.104707       0.219800E-001  0.530941E-002  0.566225       0.891502       0.852186       0.203711E-008
  0.222521E-009  0.541487E-007  0.155862E-003  0.234645E-001  0.630714E-001  0.205268       0.833049       0.309726       0.568550       0.529555E-002
  0.192875E-021  0.300351       0.932950E-001  0.187278E-001  0.402902E-002  0.537889       0.889137       0.872743       0.690076E-008  0.309675E-008
  0.911839E-006  0.732405E-003  0.498506E-001  0.128894       0.366700       0.951354       0.309488       0.811909       0.826911E-001  0.286197E-012
  0.366250       0.116147       0.266997E-001  0.684070E-002  0.551717       0.906730       0.940054       0.230030E-009  0.386200E-010  0.416411E-007
  0.147594E-003  0.225592E-001  0.611291E-001  0.219573       0.852481       0.264923       0.605681       0.794110E-002  0.192875E-021  0.286432     
  0.783088E-001  0.153321E-001  0.290494E-002  0.492564       0.879747       0.875775       0.528598E-006  0.430990E-006  0.146938E-004  0.366882E-002
  0.100239       0.233100       0.499805       0.978158       0.396507       0.902815       0.234802       0.760043E-006  0.468999       0.187313     
  0.544679E-001  0.205869E-001  0.645880       0.933978       0.968111       0.145351E-010  0.393460E-011  0.271684E-007  0.116755E-003  0.208031E-001
  0.579291E-001  0.239816       0.896525       0.268267       0.679222       0.161182E-001  0.192875E-021  0.266920       0.621056E-001  0.115569E-001
  0.181638E-002  0.441635       0.868993       0.892469     
 
  0.830674E-008  0.348541E-009  0.188606E-007  0.759154E-004  0.144220E-001  0.390257E-001  0.124544       0.682398       0.367890       0.384100     
  0.475968E-003  0.192875E-021  0.279995       0.888952E-001  0.176009E-001  0.382729E-002  0.537735       0.878082       0.826540       0.197154E-008
  0.161211E-009  0.161612E-007  0.848660E-004  0.169223E-001  0.461663E-001  0.164690       0.783858       0.295564       0.496600       0.201610E-002
  0.192875E-021  0.274046       0.793126E-001  0.150597E-001  0.288679E-002  0.509768       0.877659       0.852212       0.677644E-008  0.289051E-008
  0.409412E-006  0.487950E-003  0.416562E-001  0.109314       0.337802       0.942540       0.305848       0.786583       0.599599E-001  0.417211E-014
  0.344004       0.101769       0.222415E-001  0.506510E-002  0.524787       0.899013       0.932422       0.220911E-009  0.316884E-010  0.128973E-007
  0.859504E-004  0.169862E-001  0.466196E-001  0.185487       0.819337       0.256300       0.551652       0.398742E-002  0.192875E-021  0.262664     
  0.663511E-001  0.123680E-001  0.205988E-002  0.463849       0.868748       0.859379       0.525494E-006  0.419322E-006  0.863413E-005  0.263248E-002
  0.880358E-001  0.209367       0.475819       0.975493       0.394520       0.891317       0.201010       0.125082E-006  0.448262       0.169647     
  0.467429E-001  0.162230E-001  0.622457       0.928613       0.964728       0.140644E-010  0.343432E-011  0.813201E-008  0.690054E-004  0.158545E-001
  0.445674E-001  0.207529       0.873859       0.261350       0.633480       0.891328E-002  0.192875E-021  0.244111       0.519845E-001  0.926068E-002
  0.126517E-002  0.412855       0.857820       0.878327     
 
  0.801871E-008  0.198217E-009  0.532316E-008  0.373558E-004  0.945645E-002  0.260703E-001  0.908407E-001  0.611368       0.341311       0.310556     
  0.945018E-004  0.192875E-021  0.254016       0.758627E-001  0.142548E-001  0.281054E-002  0.511171       0.864668       0.802268       0.190335E-008
  0.113756E-009  0.480563E-008  0.465566E-004  0.121115E-001  0.334664E-001  0.130807       0.731821       0.280941       0.429439       0.712577E-003
  0.192875E-021  0.250494       0.677634E-001  0.122556E-001  0.211178E-002  0.483567       0.866056       0.831979       0.664690E-008  0.270196E-008
  0.188676E-006  0.335170E-003  0.350849E-001  0.931815E-001  0.312057       0.933479       0.302254       0.762309       0.440207E-001  0.358034E-015
  0.324055       0.896881E-001  0.187765E-001  0.382208E-002  0.499848       0.891523       0.925012       0.211957E-009  0.261350E-010  0.407514E-008
  0.510949E-004  0.128493E-001  0.356347E-001  0.156798       0.785891       0.247829       0.501731       0.199029E-002  0.192875E-021  0.241628     
  0.565942E-001  0.101170E-001  0.149667E-002  0.437523       0.857980       0.843692       0.522189E-006  0.408579E-006  0.521667E-005  0.193865E-002
  0.779233E-001  0.188893       0.454250       0.972820       0.392609       0.880595       0.173918       0.302727E-007  0.429430       0.154338     
  0.405424E-001  0.129486E-001  0.600453       0.923414       0.961496       0.136007E-010  0.301067E-011  0.247274E-008  0.416988E-004  0.121753E-001
  0.344714E-001  0.180156       0.851205       0.254676       0.591063       0.504877E-002  0.192875E-021  0.224061       0.438409E-001  0.753106E-002
  0.908092E-003  0.386762       0.846997       0.864841     
 
  0.775984E-008  0.108045E-009  0.156659E-008  0.185698E-004  0.615763E-002  0.172462E-001  0.656651E-001  0.543576       0.315435       0.249012     
  0.787988E-005  0.192875E-021  0.230993       0.651456E-001  0.116882E-001  0.210685E-002  0.486631       0.851320       0.779185       0.184216E-008
  0.777701E-010  0.150599E-008  0.258795E-004  0.863812E-002  0.241225E-001  0.103192       0.678376       0.266100       0.368524       0.194561E-003
  0.192875E-021  0.229567       0.582801E-001  0.101060E-001  0.158081E-002  0.459440       0.854469       0.812331       0.651195E-008  0.251431E-008
  0.896325E-007  0.237144E-003  0.298057E-001  0.799237E-001  0.289077       0.924153       0.298736       0.738816       0.325836E-001  0.535648E-016
  0.306283       0.795917E-001  0.160724E-001  0.294649E-002  0.477049       0.884347       0.917823       0.203951E-009  0.216487E-010  0.135305E-008
  0.310120E-004  0.977620E-002  0.273368E-001  0.132631       0.751826       0.239426       0.455434       0.896322E-003  0.192875E-021  0.223052     
  0.486511E-001  0.839599E-002  0.111653E-002  0.413636       0.847492       0.828589       0.518575E-006  0.397703E-006  0.325528E-005  0.147062E-002
  0.696077E-001  0.171469       0.435161       0.970174       0.390836       0.870677       0.152104       0.881101E-008  0.412557       0.141173     
  0.355727E-001  0.104952E-001  0.580004       0.918458       0.958470       0.132074E-010  0.265016E-011  0.793755E-009  0.258524E-004  0.946207E-002
  0.269283E-001  0.157327       0.829065       0.248305       0.552617       0.282665E-002  0.192875E-021  0.206557       0.373123E-001  0.621905E-002
  0.672713E-003  0.363376       0.836641       0.852132     
 
  0.751022E-008  0.477561E-010  0.474560E-009  0.906778E-005  0.387496E-002  0.110056E-001  0.458187E-001  0.473897       0.288359       0.193857     
  0.300909E-006  0.192875E-021  0.209966       0.561788E-001  0.968107E-002  0.161000E-002  0.463760       0.837455       0.755759       0.177951E-008
  0.494364E-010  0.485789E-009  0.144434E-004  0.610296E-002  0.171905E-001  0.802682E-001  0.623415       0.250970       0.312119       0.402284E-004
  0.192875E-021  0.210886       0.504766E-001  0.844272E-002  0.121116E-002  0.437384       0.842935       0.792991       0.637505E-008  0.234961E-008
  0.440268E-007  0.172625E-003  0.255608E-001  0.690639E-001  0.268688       0.914667       0.295319       0.716298       0.244006E-001  0.703680E-017
  0.290524       0.711736E-001  0.139474E-001  0.232273E-002  0.456399       0.877541       0.910881       0.195631E-009  0.176859E-010  0.460320E-009
  0.190103E-004  0.742549E-002  0.208959E-001  0.111295       0.715402       0.230773       0.409779       0.365057E-003  0.192875E-021  0.206498     
  0.421561E-001  0.706422E-002  0.855037E-003  0.392095       0.837249       0.813502       0.515752E-006  0.388353E-006  0.211234E-005  0.114997E-002
  0.628339E-001  0.156891       0.418890       0.968001       0.389310       0.862407       0.135336       0.271477E-008  0.397637       0.129915     
  0.315829E-001  0.864908E-002  0.561165       0.913800       0.955811       0.127803E-010  0.235263E-011  0.259069E-009  0.162895E-004  0.739007E-002
  0.211013E-001  0.137033       0.805319       0.241879       0.514173       0.150527E-002  0.192875E-021  0.191132       0.320513E-001  0.521124E-002
  0.513785E-003  0.342552       0.826734       0.839511     
 
  0.728058E-008  0.189508E-010  0.160747E-009  0.472053E-005  0.252114E-002  0.723665E-002  0.328270E-001  0.416732       0.265194       0.153697     
  0.571066E-008  0.192875E-021  0.192400       0.490968E-001  0.817402E-002  0.126619E-002  0.443686       0.824803       0.735346       0.171976E-008
  0.286508E-010  0.171806E-009  0.834359E-005  0.435364E-002  0.123433E-001  0.626553E-001  0.571626       0.236606       0.264348       0.678754E-005
  0.192875E-021  0.194829       0.442232E-001  0.717696E-002  0.955019E-003  0.417832       0.831966       0.775064       0.624624E-008  0.220899E-008
  0.230491E-007  0.130015E-003  0.222108E-001  0.603694E-001  0.251128       0.905478       0.292117       0.695577       0.186395E-001  0.143452E-017
  0.276932       0.643036E-001  0.122982E-001  0.188108E-002  0.438218       0.871291       0.904478       0.187937E-009  0.142852E-010  0.170789E-009
  0.120569E-004  0.571486E-002  0.161550E-001  0.938867E-001  0.680138       0.222505       0.369091       0.141609E-003  0.192875E-021  0.192288     
  0.369747E-001  0.604870E-002  0.675453E-003  0.373225       0.827657       0.799470       0.513478E-006  0.380239E-006  0.143720E-005  0.928269E-003
  0.573749E-001  0.144865       0.405122       0.966098       0.387977       0.855369       0.122348       0.982178E-009  0.384737       0.120495     
  0.284239E-001  0.727429E-002  0.544319       0.909548       0.953482       0.124049E-010  0.213780E-011  0.932505E-010  0.106692E-004  0.587569E-002
  0.168073E-001  0.120387       0.782711       0.235900       0.479945       0.817278E-003  0.192875E-021  0.178032       0.279084E-001  0.444742E-002
  0.406159E-003  0.324507       0.817623       0.827964     
 
  0.708085E-008  0.653920E-011  0.607424E-010  0.260595E-005  0.168412E-002  0.487425E-002  0.239646E-001  0.368242       0.244818       0.123281     
  0.994252E-010  0.192875E-021  0.177697       0.435051E-001  0.703777E-002  0.102599E-002  0.426273       0.813205       0.717234       0.166459E-008
  0.153961E-010  0.673414E-010  0.507113E-005  0.317200E-002  0.903557E-002  0.495537E-001  0.525292       0.223567       0.225511       0.109458E-005
  0.192875E-021  0.181357       0.392915E-001  0.622030E-002  0.776624E-003  0.400930       0.821900       0.759042       0.612898E-008  0.208633E-008
  0.129461E-007  0.101545E-003  0.195986E-001  0.535128E-001  0.236341       0.896935       0.289193       0.677124       0.146317E-001  0.380370E-018
  0.265453       0.587808E-001  0.110265E-001  0.156761E-002  0.422580       0.865710       0.898745       0.181179E-009  0.113944E-010  0.696051E-010
  0.800316E-005  0.448797E-002  0.127240E-001  0.800591E-001  0.647556       0.214899       0.334149       0.544562E-004  0.192875E-021  0.180362     
  0.329008E-001  0.527861E-002  0.551095E-003  0.357074       0.818960       0.786868       0.511500E-006  0.373282E-006  0.102684E-005  0.773221E-003
  0.530186E-001  0.135082       0.393649       0.964483       0.386825       0.849465       0.112323       0.405498E-009  0.373807       0.112746     
  0.259461E-001  0.625417E-002  0.529632       0.905768       0.951493       0.120931E-010  0.196415E-011  0.369704E-010  0.732631E-005  0.477681E-002
  0.136716E-001  0.106986       0.761919       0.230491       0.450314       0.450037E-003  0.192875E-021  0.167134       0.246866E-001  0.387083E-002
  0.332321E-003  0.309205       0.809484       0.817710     
 
  0.691531E-008  0.197929E-011  0.254063E-010  0.153792E-005  0.116626E-002  0.339654E-002  0.179736E-001  0.328268       0.227410       0.100642     
  0.262204E-011  0.192875E-021  0.165596       0.391330E-001  0.618290E-002  0.856672E-003  0.411460       0.802864       0.701495       0.161674E-008
  0.768993E-011  0.293906E-010  0.326790E-005  0.237796E-002  0.679581E-002  0.399699E-001  0.485210       0.212125       0.194719       0.203048E-006
  0.192875E-021  0.170242       0.354379E-001  0.549866E-002  0.651086E-003  0.386598       0.812919       0.745064       0.602534E-008  0.198137E-008
  0.782295E-008  0.822277E-004  0.175777E-001  0.481618E-001  0.224140       0.889283       0.286635       0.661205       0.118388E-001  0.124701E-018
  0.255926       0.543884E-001  0.100492E-001  0.134346E-002  0.409372       0.860844       0.893758       0.175428E-009  0.892238E-011  0.315097E-010
  0.559497E-005  0.361421E-002  0.102643E-001  0.693149E-001  0.618632       0.208162       0.305106       0.220215E-004  0.192875E-021  0.170526     
  0.297264E-001  0.469588E-002  0.463925E-003  0.343498       0.811286       0.775874       0.509833E-006  0.367489E-006  0.769627E-006  0.663238E-003
  0.495643E-001  0.127202       0.384198       0.963107       0.385845       0.844550       0.104535       0.188448E-009  0.364699       0.106454     
  0.240141E-001  0.549636E-002  0.517080       0.902483       0.949820       0.118353E-010  0.180691E-011  0.163951E-010  0.529698E-005  0.398205E-002
  0.113936E-001  0.964096E-001  0.743572       0.225794       0.425504       0.258747E-003  0.192875E-021  0.158212       0.221997E-001  0.343596E-002
  0.280849E-003  0.296445       0.802391       0.808854     
 
  0.679715E-008  0.584331E-012  0.124590E-010  0.991995E-006  0.853554E-003  0.249758E-002  0.140731E-001  0.297204       0.213423       0.845896E-001
  0.124524E-012  0.192875E-021  0.156164       0.358701E-001  0.556340E-002  0.740624E-003  0.399600       0.794232       0.688555       0.158005E-008
  0.371582E-011  0.149360E-010  0.227416E-005  0.186209E-002  0.533339E-002  0.332773E-001  0.452850       0.202724       0.171655       0.489784E-007
  0.192875E-021  0.161554       0.325629E-001  0.497433E-002  0.565074E-003  0.375153       0.805413       0.733540       0.593896E-008  0.189609E-008
  0.517994E-008  0.694164E-004  0.160849E-001  0.441833E-001  0.214643       0.882937       0.284537       0.648385       0.996028E-002  0.524822E-019
  0.248442       0.510610E-001  0.932796E-002  0.118791E-002  0.398873       0.856871       0.889697       0.170833E-009  0.691116E-011  0.163940E-010
  0.417481E-005  0.301472E-002  0.856878E-002  0.613781E-001  0.594757       0.202594       0.282393       0.988411E-005  0.192875E-021  0.162840     
  0.273636E-001  0.427137E-002  0.404348E-003  0.332744       0.804944       0.766841       0.508541E-006  0.362839E-006  0.609978E-006  0.587276E-003
  0.469525E-001  0.121172       0.376835       0.962030       0.385076       0.840725       0.988017E-001  0.101955E-009  0.357510       0.101603     
  0.225713E-001  0.495363E-002  0.506999       0.899803       0.948490       0.116316E-010  0.168241E-011  0.844221E-011  0.409078E-005  0.343781E-002
  0.982918E-002  0.887383E-001  0.729443       0.222139       0.406950       0.162429E-003  0.192875E-021  0.151356       0.203710E-001  0.312130E-002
  0.245874E-003  0.286432       0.796669       0.801945     
 
 )
