TRANSMISSION%TAU_TOTAL = (
  0.113514E-007  0.692506E-008  0.621427E-008  0.288610E-009  0.777617E-009  0.163660E-007  0.351422E-009  0.255953E-001  0.103687       0.552468     
  0.535549       0.687087E-003  0.791473       0.696950       0.685026E-008  0.309488E-008  0.321900E-008  0.474393E-010  0.156410E-009  0.718016E-008
  0.185905E-009  0.163682E-001  0.103739       0.574232       0.489303       0.162827E-003  0.784975       0.687362       0.737179E-007  0.393199E-007
  0.422679E-007  0.132579E-008  0.310799E-008  0.109472E-006  0.843193E-008  0.584455E-001  0.474342       0.897456       0.642862       0.211023E-003
  0.897674       0.832104       0.581297E-008  0.141209E-008  0.148692E-008  0.406635E-011  0.195464E-010  0.436910E-008  0.168125E-009  0.152167E-001
  0.147672       0.646995       0.492009       0.559503E-004  0.796018       0.700630       0.152421E-005  0.134351E-005  0.143509E-005  0.115939E-005
  0.103732E-005  0.867776E-006  0.592977E-006  0.205016       0.782358       0.975187       0.746634       0.399059E-002  0.962236       0.930729     
  0.642204E-008  0.237512E-009  0.285281E-009  0.667476E-013  0.725743E-012  0.184907E-008  0.738364E-010  0.887013E-002  0.178636       0.726823     
  0.528991       0.551421E-005  0.804027       0.711324     
 )
TRANSMISSION%TAU_LAYERS = (
   1.00000        1.00000        1.00000        1.00000        1.00000        1.00000        1.00000        1.00000        1.00000        1.00000     
   1.00000        1.00000        1.00000        1.00000        1.00000        1.00000        1.00000        1.00000        1.00000        1.00000     
   1.00000        1.00000        1.00000        1.00000        1.00000        1.00000        1.00000        1.00000        1.00000        1.00000     
   1.00000        1.00000        1.00000        1.00000        1.00000        1.00000        1.00000        1.00000        1.00000        1.00000     
   1.00000        1.00000        1.00000        1.00000        1.00000        1.00000        1.00000        1.00000        1.00000        1.00000     
   1.00000        1.00000        1.00000        1.00000        1.00000        1.00000        1.00000        1.00000        1.00000        1.00000     
   1.00000        1.00000        1.00000        1.00000        1.00000        1.00000        1.00000        1.00000        1.00000        1.00000     
   1.00000        1.00000        1.00000        1.00000        1.00000        1.00000        1.00000        1.00000        1.00000        1.00000     
   1.00000        1.00000        1.00000        1.00000     
 
  0.999569       0.993750       0.989838       0.999412       0.999349       0.998046       0.998525       0.999996        1.00000        1.00000     
  0.999997       0.999860        1.00000        1.00000       0.999624       0.994100       0.991201       0.999499       0.999466       0.998280     
  0.998759       0.999997        1.00000        1.00000       0.999998       0.999890        1.00000        1.00000       0.999543       0.994613     
  0.989929       0.999355       0.999252       0.998118       0.998451       0.999995        1.00000        1.00000       0.999997       0.999827     
   1.00000        1.00000       0.999656       0.994626       0.992306       0.999550       0.999533       0.998499       0.998911       0.999997     
   1.00000        1.00000       0.999998       0.999903        1.00000        1.00000       0.999662       0.995933       0.991271       0.999489     
  0.999375       0.998362       0.998688       0.999995        1.00000        1.00000       0.999997       0.999864        1.00000        1.00000     
  0.999535       0.994679       0.991367       0.999379       0.999320       0.998385       0.998627       0.999995        1.00000        1.00000     
  0.999997       0.999834        1.00000        1.00000     
 
  0.998691       0.988345       0.984551       0.998419       0.998361       0.997049       0.997367       0.999986       0.999999        1.00000     
  0.999992       0.999536        1.00000        1.00000       0.998976       0.989377       0.986604       0.998763       0.998762       0.997431     
  0.997824       0.999991        1.00000        1.00000       0.999995       0.999668        1.00000        1.00000       0.998968       0.990882     
  0.984553       0.998679       0.998515       0.997065       0.997509       0.999987       0.999999        1.00000       0.999993       0.999596     
   1.00000        1.00000       0.999305       0.991135       0.988242       0.999136       0.999131       0.997722       0.998235       0.999994     
   1.00000        1.00000       0.999996       0.999792        1.00000        1.00000       0.999365       0.993331       0.986152       0.999080     
  0.998894       0.997381       0.997875       0.999990       0.999999        1.00000       0.999995       0.999741        1.00000        1.00000     
  0.999147       0.991064       0.985968       0.998901       0.998803       0.997356       0.997739       0.999991        1.00000        1.00000     
  0.999994       0.999693        1.00000        1.00000     
 
  0.997094       0.981872       0.978215       0.997009       0.996816       0.995600       0.996339       0.999965       0.999998        1.00000     
  0.999979       0.998923        1.00000        1.00000       0.997834       0.983943       0.981919       0.997675       0.997631       0.996449     
  0.996898       0.999977       0.999999        1.00000       0.999986       0.999248        1.00000        1.00000       0.998008       0.986598     
  0.979875       0.997681       0.997450       0.996072       0.996611       0.999973       0.999998        1.00000       0.999986       0.999206     
   1.00000        1.00000       0.998476       0.986048       0.984613       0.998233       0.998305       0.997085       0.997331       0.999986     
  0.999999        1.00000       0.999992       0.999509        1.00000        1.00000       0.998582       0.989748       0.981177       0.998137     
  0.997862       0.996347       0.996883       0.999977       0.999998        1.00000       0.999988       0.999408        1.00000        1.00000     
  0.998061       0.985898       0.981631       0.997800       0.997668       0.996421       0.996825       0.999977       0.999999        1.00000     
  0.999987       0.999279        1.00000        1.00000     
 
  0.994736       0.974001       0.969392       0.995398       0.995119       0.993543       0.995545       0.999928       0.999995        1.00000     
  0.999942       0.998047        1.00000        1.00000       0.996024       0.977246       0.975198       0.996250       0.996058       0.994873     
  0.996007       0.999951       0.999997        1.00000       0.999964       0.998571        1.00000        1.00000       0.996178       0.980291     
  0.972516       0.996227       0.995842       0.994327       0.995769       0.999944       0.999996        1.00000       0.999967       0.998476     
   1.00000        1.00000       0.996863       0.979646       0.978874       0.996887       0.996791       0.995728       0.996418       0.999965     
  0.999998        1.00000       0.999978       0.998912        1.00000        1.00000       0.997563       0.986286       0.976165       0.997217     
  0.996826       0.995195       0.996280       0.999958       0.999997        1.00000       0.999974       0.998977        1.00000        1.00000     
  0.996961       0.981672       0.977714       0.996930       0.996728       0.995494       0.996285       0.999963       0.999998        1.00000     
  0.999977       0.998871        1.00000        1.00000     
 
  0.991708       0.964674       0.958097       0.993589       0.993514       0.991064       0.994900       0.999870       0.999987        1.00000     
  0.999852       0.996965       0.999999        1.00000       0.993397       0.968996       0.965341       0.994596       0.994355       0.992599     
  0.995300       0.999907       0.999992        1.00000       0.999910       0.997613        1.00000        1.00000       0.993861       0.973077     
  0.964023       0.994796       0.994489       0.992401       0.995252       0.999904       0.999991        1.00000       0.999921       0.997620     
   1.00000        1.00000       0.995064       0.973583       0.972324       0.995665       0.995488       0.994201       0.995799       0.999938     
  0.999996        1.00000       0.999950       0.998260        1.00000        1.00000       0.996381       0.982503       0.970834       0.996268     
  0.995795       0.993966       0.995769       0.999936       0.999995        1.00000       0.999954       0.998492        1.00000        1.00000     
  0.995190       0.975409       0.971657       0.995664       0.995343       0.994017       0.995622       0.999938       0.999996        1.00000     
  0.999957       0.998219        1.00000        1.00000     
 
  0.988234       0.953944       0.944165       0.991558       0.991819       0.988192       0.994131       0.999786       0.999972        1.00000     
  0.999662       0.995714       0.999999        1.00000       0.989897       0.958665       0.952040       0.992569       0.992727       0.989775     
  0.994655       0.999834       0.999981        1.00000       0.999773       0.996374       0.999999        1.00000       0.991310       0.965244     
  0.954843       0.993319       0.993266       0.990430       0.994787       0.999852       0.999983        1.00000       0.999832       0.996716     
  0.999999        1.00000       0.992672       0.966192       0.963476       0.994208       0.994049       0.992190       0.995218       0.999897     
  0.999991        1.00000       0.999895       0.997405        1.00000        1.00000       0.994391       0.976446       0.963030       0.994995     
  0.994593       0.992232       0.995323       0.999899       0.999990        1.00000       0.999908       0.997736        1.00000        1.00000     
  0.992405       0.966629       0.962398       0.994061       0.993882       0.991901       0.995105       0.999891       0.999991        1.00000     
  0.999893       0.997251        1.00000        1.00000     
 
  0.984584       0.941946       0.926671       0.989335       0.989736       0.984821       0.992944       0.999664       0.999947       0.999999     
  0.999311       0.994310       0.999999       0.999999       0.986174       0.947211       0.935871       0.990363       0.990827       0.986558     
  0.993703       0.999726       0.999960       0.999999       0.999500       0.994980       0.999999        1.00000       0.988378       0.956069     
  0.943671       0.991636       0.991888       0.988138       0.994188       0.999781       0.999971        1.00000       0.999667       0.995676     
  0.999999        1.00000       0.989199       0.956081       0.950255       0.992203       0.992467       0.989399       0.994590       0.999824     
  0.999980        1.00000       0.999764       0.996177       0.999999        1.00000       0.992023       0.969153       0.954494       0.993625     
  0.993496       0.990429       0.994906       0.999849       0.999982        1.00000       0.999815       0.996896       0.999999        1.00000     
  0.989887       0.958805       0.953595       0.992632       0.992718       0.990007       0.994658       0.999839       0.999983        1.00000     
  0.999788       0.996379       0.999999        1.00000     
 
  0.980879       0.928754       0.904454       0.986895       0.987095       0.980842       0.991124       0.999494       0.999908       0.999999     
  0.998722       0.992771       0.999998       0.999999       0.982554       0.935128       0.915984       0.988077       0.988478       0.982943     
  0.992231       0.999579       0.999927       0.999999       0.999060       0.993490       0.999998       0.999999       0.985183       0.945580     
  0.929748       0.989745       0.990186       0.985407       0.993287       0.999681       0.999950       0.999999       0.999379       0.994494     
  0.999999        1.00000       0.985323       0.944438       0.932574       0.989884       0.990421       0.985955       0.993540       0.999705     
  0.999956       0.999999       0.999486       0.994676       0.999999       0.999999       0.989698       0.961749       0.945683       0.992288     
  0.992416       0.988629       0.994424       0.999793       0.999972        1.00000       0.999671       0.996088       0.999999        1.00000     
  0.987076       0.949942       0.942894       0.991013       0.991373       0.987783       0.994069       0.999769       0.999970        1.00000     
  0.999620       0.995374       0.999999        1.00000     
 
  0.977039       0.914313       0.877162       0.984113       0.983860       0.976161       0.988565       0.999264       0.999851       0.999998     
  0.997804       0.991130       0.999997       0.999999       0.978782       0.921764       0.890963       0.985486       0.985540       0.978695     
  0.990072       0.999376       0.999878       0.999998       0.998366       0.991864       0.999997       0.999999       0.981782       0.933513     
  0.911341       0.987592       0.987936       0.982001       0.991845       0.999538       0.999918       0.999999       0.998878       0.993130     
  0.999998       0.999999       0.981820       0.933035       0.912446       0.987648       0.988075       0.982420       0.992048       0.999553     
  0.999921       0.999999       0.999073       0.993192       0.999998       0.999999       0.987079       0.953020       0.934836       0.990758     
  0.991097       0.986467       0.993736       0.999717       0.999957       0.999999       0.999439       0.995175       0.999999        1.00000     
  0.983638       0.938565       0.927421       0.988936       0.989441       0.984699       0.993042       0.999657       0.999947       0.999999     
  0.999296       0.994042       0.999998       0.999999     
 
  0.972888       0.898352       0.845460       0.980844       0.980043       0.970636       0.985248       0.998962       0.999775       0.999997     
  0.996462       0.989436       0.999996       0.999998       0.974708       0.906959       0.861058       0.982449       0.982006       0.973670     
  0.987162       0.999105       0.999809       0.999997       0.997315       0.990146       0.999996       0.999999       0.978114       0.919453     
  0.886529       0.985016       0.984947       0.977672       0.989579       0.999325       0.999868       0.999998       0.998004       0.991564     
  0.999997       0.999999       0.978083       0.920192       0.887599       0.985085       0.985169       0.978281       0.989920       0.999349     
  0.999870       0.999998       0.998441       0.991569       0.999997       0.999999       0.984258       0.942929       0.921418       0.989041     
  0.989446       0.983857       0.992723       0.999617       0.999936       0.999999       0.999077       0.994168       0.999999       0.999999     
  0.979871       0.925006       0.904468       0.986423       0.986660       0.980578       0.991176       0.999471       0.999905       0.999999     
  0.998642       0.992386       0.999998       0.999999     
 
  0.968256       0.880319       0.810252       0.976972       0.975642       0.964085       0.981188       0.998575       0.999676       0.999996     
  0.994585       0.987726       0.999994       0.999998       0.970141       0.890308       0.826841       0.978822       0.977861       0.967659     
  0.983469       0.998750       0.999715       0.999996       0.995793       0.988373       0.999995       0.999998       0.974345       0.904316     
  0.857866       0.982075       0.981466       0.972643       0.986610       0.999043       0.999799       0.999997       0.996668       0.989997     
  0.999996       0.999999       0.974004       0.905737       0.858079       0.982073       0.981683       0.973385       0.987065       0.999078     
  0.999800       0.999997       0.997505       0.989848       0.999996       0.999999       0.981164       0.930511       0.903383       0.986997     
  0.987210       0.980443       0.991097       0.999476       0.999905       0.999999       0.998479       0.993000       0.999998       0.999999     
  0.976194       0.911335       0.877781       0.983722       0.983486       0.976077       0.988689       0.999223       0.999844       0.999998     
  0.997633       0.990746       0.999997       0.999999     
 
  0.963033       0.859577       0.772069       0.972429       0.970587       0.956315       0.976377       0.998087       0.999552       0.999994     
  0.992070       0.985999       0.999992       0.999997       0.964933       0.871217       0.788897       0.974505       0.973052       0.960437     
  0.978968       0.998298       0.999595       0.999994       0.993685       0.986570       0.999993       0.999998       0.970382       0.887731     
  0.827244       0.978738       0.977606       0.966900       0.983088       0.998691       0.999714       0.999997       0.994843       0.988497     
  0.999995       0.999998       0.969392       0.889307       0.824143       0.978462       0.977581       0.967483       0.983415       0.998728     
  0.999707       0.999996       0.996159       0.988060       0.999995       0.999998       0.978142       0.916661       0.881807       0.984726     
  0.984515       0.976377       0.988840       0.999295       0.999865       0.999998       0.997586       0.991813       0.999997       0.999999     
  0.972066       0.896089       0.846832       0.980500       0.979752       0.970738       0.985485       0.998887       0.999759       0.999997     
  0.996123       0.989030       0.999995       0.999998     
 
  0.957077       0.835383       0.730807       0.967136       0.964686       0.947104       0.970762       0.997472       0.999399       0.999992     
  0.988833       0.984202       0.999989       0.999996       0.959001       0.848995       0.747636       0.969442       0.967461       0.951797     
  0.973629       0.997733       0.999446       0.999992       0.990885       0.984740       0.999991       0.999997       0.965946       0.868387     
  0.793716       0.974800       0.973149       0.960056       0.978879       0.998244       0.999608       0.999995       0.992449       0.986993     
  0.999993       0.999997       0.964038       0.870286       0.785919       0.974100       0.972767       0.960271       0.978893       0.998277     
  0.999585       0.999994       0.994259       0.986208       0.999993       0.999998       0.975243       0.902246       0.858784       0.982289     
  0.981571       0.971918       0.986198       0.999077       0.999818       0.999998       0.996418       0.990694       0.999996       0.999999     
  0.967237       0.878277       0.811339       0.976555       0.975307       0.964178       0.981425       0.998433       0.999642       0.999996     
  0.993921       0.987223       0.999993       0.999998     
 
  0.950034       0.806183       0.684900       0.960797       0.957459       0.935892       0.964076       0.996671       0.999204       0.999989     
  0.984695       0.982192       0.999985       0.999994       0.952262       0.822931       0.703205       0.963579       0.960889       0.941552     
  0.967415       0.997030       0.999263       0.999989       0.987306       0.982848       0.999988       0.999996       0.960871       0.845507     
  0.757014       0.970151       0.967918       0.951899       0.973918       0.997681       0.999479       0.999994       0.989467       0.985442     
  0.999991       0.999996       0.957792       0.847951       0.743414       0.968886       0.967063       0.951458       0.973413       0.997703     
  0.999429       0.999991       0.991629       0.984276       0.999991       0.999997       0.972010       0.885515       0.832313       0.979354     
  0.978074       0.966584       0.982963       0.998795       0.999759       0.999998       0.994869       0.989524       0.999995       0.999998     
  0.961620       0.857132       0.771816       0.971803       0.970047       0.956138       0.976445       0.997840       0.999489       0.999994     
  0.990910       0.985344       0.999991       0.999997     
 
  0.941966       0.772280       0.635564       0.953435       0.948838       0.922796       0.956421       0.995668       0.998967       0.999985     
  0.979785       0.979934       0.999981       0.999992       0.944628       0.792532       0.655676       0.956828       0.953113       0.929554     
  0.960289       0.996158       0.999042       0.999986       0.982912       0.980839       0.999985       0.999994       0.955010       0.818440     
  0.716950       0.964695       0.961715       0.942265       0.968159       0.996989       0.999325       0.999992       0.985963       0.983793     
  0.999989       0.999995       0.950428       0.821041       0.695900       0.962643       0.960101       0.940600       0.966795       0.996964     
  0.999229       0.999988       0.988055       0.982197       0.999988       0.999996       0.968264       0.865760       0.802177       0.975784     
  0.973922       0.960198       0.979072       0.998436       0.999686       0.999997       0.992929       0.988291       0.999994       0.999997     
  0.955139       0.831730       0.728442       0.966172       0.963775       0.946367       0.970483       0.997086       0.999299       0.999992     
  0.987077       0.983372       0.999988       0.999995     
 
  0.933156       0.735181       0.585124       0.945229       0.939069       0.908389       0.948082       0.994505       0.998696       0.999978     
  0.974462       0.977469       0.999976       0.999989       0.935980       0.757460       0.605042       0.949031       0.943906       0.915664     
  0.952171       0.995084       0.998776       0.999980       0.977727       0.978641       0.999981       0.999993       0.948241       0.786691     
  0.673418       0.958324       0.954339       0.931032       0.961556       0.996164       0.999148       0.999989       0.982061       0.981993     
  0.999985       0.999994       0.941890       0.788867       0.643845       0.955287       0.951614       0.927510       0.958991       0.996027     
  0.998980       0.999984       0.983461       0.979934       0.999985       0.999995       0.963836       0.842286       0.768253       0.971461     
  0.968982       0.952585       0.974464       0.997993       0.999598       0.999995       0.990626       0.986971       0.999992       0.999996     
  0.947651       0.801155       0.680993       0.959539       0.956196       0.934618       0.963458       0.996148       0.999069       0.999989     
  0.982489       0.981224       0.999984       0.999993     
 
  0.923276       0.694020       0.532446       0.935769       0.927756       0.892258       0.938773       0.993147       0.998385       0.999970     
  0.968648       0.974683       0.999970       0.999986       0.926230       0.717714       0.551716       0.940000       0.933108       0.899855     
  0.943000       0.993794       0.998462       0.999973       0.971878       0.976202       0.999976       0.999991       0.940460       0.749992     
  0.626488       0.950893       0.945607       0.918125       0.954064       0.995210       0.998948       0.999984       0.977873       0.979991     
  0.999982       0.999992       0.932387       0.751913       0.589377       0.946880       0.941653       0.912489       0.950184       0.994884     
  0.998682       0.999978       0.978001       0.977514       0.999981       0.999993       0.958569       0.814488       0.730421       0.966274     
  0.963079       0.943573       0.969083       0.997459       0.999495       0.999993       0.988012       0.985531       0.999989       0.999995     
  0.938997       0.764797       0.629353       0.951730       0.947012       0.920702       0.955287       0.994997       0.998794       0.999984     
  0.977227       0.978798       0.999978       0.999991     
 
  0.912228       0.649171       0.478146       0.924865       0.914741       0.874376       0.928452       0.991590       0.998033       0.999957     
  0.962366       0.971545       0.999962       0.999983       0.915197       0.673170       0.495910       0.929440       0.920461       0.881990     
  0.932651       0.992279       0.998101       0.999962       0.965454       0.973451       0.999971       0.999988       0.931578       0.708376     
  0.576473       0.942216       0.935348       0.903510       0.945642       0.994130       0.998729       0.999977       0.973472       0.977742     
  0.999978       0.999990       0.921823       0.710061       0.532964       0.937197       0.930061       0.895539       0.940311       0.993528     
  0.998337       0.999969       0.971885       0.974881       0.999975       0.999991       0.952329       0.781963       0.688642       0.960108     
  0.956011       0.933018       0.962885       0.996831       0.999377       0.999990       0.985146       0.983927       0.999987       0.999993     
  0.929011       0.722275       0.573622       0.942472       0.935936       0.904466       0.945855       0.993617       0.998472       0.999977     
  0.971405       0.975998       0.999972       0.999988     
 
  0.899926       0.601353       0.423141       0.912368       0.899885       0.854769       0.917105       0.989840       0.997642       0.999939     
  0.955658       0.968050       0.999954       0.999979       0.902621       0.623831       0.437926       0.916987       0.905621       0.861858     
  0.920966       0.990537       0.997692       0.999946       0.958508       0.970307       0.999964       0.999985       0.921496       0.662140     
  0.523833       0.932060       0.923368       0.887148       0.936236       0.992924       0.998491       0.999966       0.968883       0.975208     
  0.999973       0.999987       0.909920       0.663063       0.474537       0.925865       0.916509       0.876444       0.929199       0.991955     
  0.997947       0.999957       0.965242       0.971939       0.999969       0.999988       0.945003       0.744558       0.642984       0.952824     
  0.947581       0.920815       0.955817       0.996106       0.999246       0.999985       0.982074       0.982111       0.999983       0.999991     
  0.917542       0.673723       0.514445       0.931453       0.922728       0.885875       0.935084       0.992011       0.998105       0.999967     
  0.965135       0.972758       0.999963       0.999984     
 
  0.886276       0.551385       0.368435       0.898144       0.883044       0.833468       0.904727       0.987907       0.997217       0.999916     
  0.948558       0.964205       0.999945       0.999974       0.888655       0.571766       0.380225       0.902734       0.888737       0.839954     
  0.908199       0.988636       0.997254       0.999925       0.951317       0.966805       0.999957       0.999982       0.910104       0.611943     
  0.469270       0.920183       0.909452       0.869016       0.925808       0.991591       0.998236       0.999950       0.964110       0.972375     
  0.999967       0.999984       0.896491       0.611468       0.414953       0.912611       0.900754       0.855161       0.916785       0.990184     
  0.997517       0.999940       0.958205       0.968623       0.999962       0.999985       0.936478       0.702352       0.593524       0.944221     
  0.937572       0.906856       0.947799       0.995284       0.999100       0.999977       0.978808       0.980034       0.999979       0.999989     
  0.904399       0.619719       0.452740       0.918324       0.907092       0.864877       0.922893       0.990182       0.997698       0.999952     
  0.958447       0.969030       0.999954       0.999979     
 
  0.871175       0.500033       0.315044       0.882046       0.864057       0.810488       0.891312       0.985799       0.996759       0.999885     
  0.941081       0.960013       0.999935       0.999969       0.873312       0.518414       0.324366       0.886673       0.869821       0.816510     
  0.894466       0.986623       0.996798       0.999895       0.944027       0.962971       0.999949       0.999978       0.897272       0.558785     
  0.413653       0.906350       0.893364       0.849089       0.914326       0.990132       0.997964       0.999929       0.959148       0.969226     
  0.999961       0.999980       0.881373       0.556371       0.355479       0.897213       0.882576       0.831713       0.903050       0.988244     
  0.997056       0.999915       0.950901       0.964888       0.999953       0.999981       0.926641       0.655801       0.540571       0.934055     
  0.925761       0.891056       0.938750       0.994363       0.998940       0.999965       0.975352       0.977650       0.999975       0.999986     
  0.889357       0.561346       0.389775       0.902747       0.888698       0.841410       0.909212       0.988137       0.997252       0.999929     
  0.951377       0.964799       0.999942       0.999973     
 
  0.854540       0.448151       0.264078       0.863957       0.842796       0.785891       0.876867       0.983527       0.996272       0.999847     
  0.933255       0.955469       0.999923       0.999962       0.856262       0.463918       0.270668       0.868430       0.848439       0.791226     
  0.879576       0.984487       0.996321       0.999857       0.936560       0.958738       0.999939       0.999973       0.882797       0.503716     
  0.357749       0.890293       0.874810       0.827258       0.901707       0.988546       0.997674       0.999899       0.953983       0.965714     
  0.999953       0.999975       0.864392       0.498948       0.297486       0.879442       0.861727       0.806102       0.887972       0.986155     
  0.996571       0.999881       0.943400       0.960710       0.999943       0.999976       0.915374       0.605653       0.484780       0.922075     
  0.911913       0.873341       0.928596       0.993342       0.998765       0.999948       0.971704       0.974920       0.999970       0.999983     
  0.872213       0.500117       0.327250       0.884430       0.867223       0.815472       0.894014       0.985887       0.996772       0.999897     
  0.943965       0.960070       0.999929       0.999965     
 
  0.836294       0.396614       0.216585       0.843763       0.819167       0.759753       0.861413       0.981106       0.995760       0.999799     
  0.925132       0.950563       0.999910       0.999955       0.837403       0.409362       0.220405       0.847861       0.824450       0.764170     
  0.863532       0.982241       0.995829       0.999809       0.928938       0.954079       0.999929       0.999967       0.866469       0.447863     
  0.302542       0.871759       0.853507       0.803418       0.887857       0.986837       0.997367       0.999861       0.948596       0.961785     
  0.999945       0.999970       0.845364       0.440335       0.242363       0.859054       0.837933       0.778322       0.871528       0.983932     
  0.996066       0.999837       0.935736       0.956062       0.999931       0.999970       0.902523       0.552722       0.427030       0.908014     
  0.895753       0.853615       0.917263       0.992221       0.998575       0.999924       0.967847       0.971805       0.999964       0.999979     
  0.852716       0.437532       0.266804       0.863041       0.842294       0.786994       0.877232       0.983438       0.996260       0.999851     
  0.936191       0.954812       0.999914       0.999956     
 
  0.816346       0.346289       0.173447       0.821343       0.793086       0.732151       0.844966       0.978555       0.995229       0.999742     
  0.916785       0.945287       0.999896       0.999947       0.816615       0.355788       0.174657       0.824799       0.797721       0.735383     
  0.846333       0.979893       0.995323       0.999750       0.921196       0.948963       0.999917       0.999961       0.848137       0.392391     
  0.249449       0.850546       0.829247       0.777555       0.872727       0.985004       0.997040       0.999812       0.942955       0.957410     
  0.999935       0.999964       0.824010       0.381673       0.191282       0.835716       0.810850       0.748266       0.853597       0.981582     
  0.995543       0.999779       0.927918       0.950860       0.999918       0.999963       0.887936       0.497980       0.368592       0.891630     
  0.877016       0.831834       0.904696       0.990997       0.998369       0.999894       0.963758       0.968279       0.999957       0.999975     
  0.830577       0.375241       0.210109       0.838246       0.813560       0.755891       0.858762       0.980792       0.995715       0.999791     
  0.928014       0.948956       0.999896       0.999946     
 
  0.794607       0.298097       0.135358       0.796592       0.764525       0.703197       0.827552       0.975901       0.994685       0.999673     
  0.908300       0.939633       0.999880       0.999938       0.793763       0.304237       0.134335       0.799077       0.768133       0.704934     
  0.827979       0.977437       0.994803       0.999678       0.913302       0.943379       0.999904       0.999954       0.827639       0.338407     
  0.199894       0.826447       0.801839       0.749657       0.856279       0.983033       0.996693       0.999752       0.936993       0.952573     
  0.999925       0.999957       0.799741       0.323626       0.144944       0.808751       0.779798       0.715454       0.833848       0.979089     
  0.995000       0.999705       0.919920       0.944940       0.999903       0.999955       0.871472       0.442459       0.310966       0.872695     
  0.855462       0.807978       0.890858       0.989667       0.998148       0.999855       0.959418       0.964334       0.999949       0.999969     
  0.805550       0.315033       0.158994       0.809769       0.780802       0.722167       0.838536       0.977952       0.995137       0.999714     
  0.919427       0.942440       0.999876       0.999934     
 
  0.770998       0.252942       0.102762       0.769432       0.733522       0.673039       0.809216       0.973165       0.994134       0.999594     
  0.899764       0.933586       0.999862       0.999928       0.768725       0.255828       0.100051       0.770573       0.735674       0.672962     
  0.808495       0.974862       0.994269       0.999593       0.905207       0.937327       0.999889       0.999946       0.804799       0.287067     
  0.155184       0.799279       0.771160       0.719760       0.838488       0.980911       0.996322       0.999678       0.930647       0.947244     
  0.999912       0.999949       0.772739       0.268765       0.105493       0.778347       0.745111       0.680534       0.812591       0.976467     
  0.994439       0.999614       0.911734       0.938379       0.999886       0.999946       0.852967       0.387183       0.255694       0.850975     
  0.830848       0.782033       0.875712       0.988226       0.997911       0.999806       0.954798       0.959958       0.999940       0.999964     
  0.777383       0.258577       0.115037       0.777357       0.743882       0.685894       0.816522       0.974904       0.994524       0.999617     
  0.910383       0.935219       0.999852       0.999920     
 
  0.745443       0.211599       0.757791E-001  0.739816       0.700171       0.641853       0.790008       0.970380       0.993582       0.999501     
  0.891282       0.927130       0.999844       0.999917       0.741394       0.211568       0.720094E-001  0.739211       0.700406       0.639641     
  0.787915       0.972165       0.993720       0.999493       0.896904       0.930790       0.999873       0.999937       0.779454       0.239507     
  0.116347       0.768920       0.737200       0.687964       0.819350       0.978628       0.995927       0.999591       0.923890       0.941382     
  0.999899       0.999941       0.743230       0.219188       0.738676E-001  0.744831       0.707326       0.644161       0.790141       0.973687     
  0.993857       0.999505       0.903194       0.931267       0.999868       0.999936       0.832208       0.333191       0.204184       0.826190     
  0.802917       0.753962       0.859202       0.986660       0.997656       0.999747       0.949851       0.955114       0.999930       0.999957     
  0.745858       0.207422       0.792321E-001  0.740850       0.702843       0.647280       0.792734       0.971632       0.993872       0.999498     
  0.900814       0.927245       0.999826       0.999904     
 
  0.717896       0.174622       0.542267E-001  0.707749       0.664650       0.609852       0.769989       0.967584       0.993038       0.999397     
  0.882993       0.920252       0.999823       0.999905       0.711679       0.172209       0.499921E-001  0.704989       0.662506       0.605169     
  0.766264       0.969353       0.993159       0.999377       0.888443       0.923740       0.999855       0.999927       0.751448       0.196641     
  0.839764E-001  0.735323       0.700054       0.654397       0.798859       0.976180       0.995506       0.999489       0.916713       0.934948     
  0.999883       0.999931       0.710746       0.175218       0.494408E-001  0.707788       0.666168       0.606138       0.766250       0.970686     
  0.993240       0.999377       0.894114       0.923488       0.999847       0.999924       0.808024       0.279802       0.156101       0.796918     
  0.770171       0.722581       0.840578       0.984878       0.997371       0.999672       0.944301       0.949548       0.999918       0.999949     
  0.709977       0.161802       0.512419E-001  0.699235       0.656865       0.605723       0.766644       0.968046       0.993167       0.999350     
  0.890468       0.918257       0.999796       0.999886     
 
  0.688315       0.142255       0.376324E-001  0.673264       0.627169       0.577226       0.749191       0.964803       0.992508       0.999279     
  0.874987       0.912921       0.999801       0.999892       0.679499       0.138093       0.334329E-001  0.667958       0.622226       0.569729     
  0.743536       0.966435       0.992587       0.999245       0.879875       0.916136       0.999835       0.999915       0.720661       0.158988     
  0.581934E-001  0.698515       0.659938       0.619246       0.777022       0.973562       0.995059       0.999371       0.909116       0.927905     
  0.999866       0.999919       0.675224       0.137460       0.315870E-001  0.667313       0.622003       0.566790       0.740958       0.967483     
  0.992593       0.999228       0.884622       0.914993       0.999824       0.999911       0.781001       0.230636       0.114795       0.763918     
  0.733627       0.689114       0.820482       0.982929       0.997063       0.999585       0.938299       0.943414       0.999905       0.999940     
  0.668648       0.122110       0.306569E-001  0.651467       0.605254       0.560768       0.737708       0.964056       0.992394       0.999169     
  0.879150       0.907961       0.999760       0.999864     
 
  0.656216       0.114112       0.251955E-001  0.635902       0.587437       0.543708       0.727346       0.962020       0.991990       0.999145     
  0.867225       0.904992       0.999777       0.999877       0.644886       0.109211       0.215727E-001  0.628324       0.579992       0.533614     
  0.719786       0.963423       0.992006       0.999096       0.871255       0.907954       0.999813       0.999902       0.687051       0.126679     
  0.386701E-001  0.658645       0.617222       0.582790       0.753885       0.970780       0.994586       0.999236       0.901139       0.920216     
  0.999847       0.999907       0.636668       0.105955       0.192902E-001  0.623624       0.575352       0.526487       0.714311       0.964100     
  0.991920       0.999057       0.874849       0.905735       0.999798       0.999897       0.752072       0.188289       0.819650E-001  0.728562     
  0.694950       0.655000       0.799689       0.980885       0.996742       0.999486       0.932086       0.936889       0.999891       0.999930     
  0.624358       0.907812E-001  0.175297E-001  0.600725       0.551888       0.515689       0.707768       0.959899       0.991599       0.998961     
  0.867595       0.896905       0.999722       0.999840     
 
  0.621456       0.901107E-001  0.162907E-001  0.595644       0.545685       0.509458       0.704424       0.959271       0.991491       0.998993     
  0.859859       0.896395       0.999750       0.999861       0.607933       0.852378E-001  0.134994E-001  0.586366       0.536321       0.497135     
  0.695083       0.960340       0.991422       0.998929       0.862674       0.899170       0.999788       0.999888       0.650661       0.995343E-001
  0.246666E-001  0.615989       0.572437       0.545368       0.729522       0.967853       0.994092       0.999083       0.892884       0.911842     
  0.999825       0.999892       0.595250       0.803274E-001  0.113527E-001  0.577137       0.526936       0.485702       0.686424       0.960542     
  0.991224       0.998862       0.864845       0.895691       0.999770       0.999881       0.720188       0.151415       0.560370E-001  0.689866     
  0.653204       0.619191       0.777451       0.978668       0.996396       0.999373       0.925446       0.929673       0.999875       0.999919     
  0.577931       0.667656E-001  0.975929E-002  0.548273       0.498364       0.471444       0.677270       0.955639       0.990796       0.998728     
  0.856035       0.885178       0.999679       0.999813     
 
  0.585306       0.706374E-001  0.103936E-001  0.554121       0.503785       0.475859       0.681245       0.956665       0.991033       0.998831     
  0.853208       0.887401       0.999721       0.999842       0.568817       0.656840E-001  0.827740E-002  0.542473       0.491824       0.460632     
  0.669511       0.957231       0.990845       0.998746       0.854320       0.889757       0.999761       0.999872       0.611604       0.771381E-001
  0.151714E-001  0.570922       0.526204       0.507334       0.704010       0.964803       0.993581       0.998914       0.884451       0.902750     
  0.999800       0.999876       0.551240       0.599238E-001  0.654679E-002  0.528368       0.477568       0.444899       0.657436       0.956812     
  0.990508       0.998644       0.854642       0.884818       0.999739       0.999863       0.685277       0.120012       0.366034E-001  0.648022     
  0.608807       0.581909       0.753771       0.976270       0.996024       0.999246       0.918378       0.921715       0.999858       0.999907     
  0.528599       0.481790E-001  0.532858E-002  0.493553       0.444344       0.427335       0.645533       0.951197       0.989973       0.998466     
  0.844321       0.872439       0.999632       0.999784     
 
  0.547974       0.549682E-001  0.661316E-002  0.511726       0.462203       0.443042       0.657838       0.954179       0.990610       0.998661     
  0.847193       0.878020       0.999690       0.999823       0.527777       0.499757E-001  0.505647E-002  0.497107       0.447135       0.424400     
  0.643140       0.954117       0.990281       0.998550       0.846301       0.879692       0.999730       0.999854       0.570084       0.589551E-001
  0.908837E-002  0.523928       0.479215       0.469044       0.677429       0.961634       0.993057       0.998731       0.875888       0.892922     
  0.999772       0.999857       0.505034       0.439903E-001  0.380253E-002  0.477965       0.428133       0.404535       0.627484       0.952927     
  0.989779       0.998408       0.844346       0.873085       0.999704       0.999842       0.647390       0.937715E-001  0.228630E-001  0.603357     
  0.562336       0.543507       0.728713       0.973700       0.995627       0.999108       0.910934       0.912993       0.999837       0.999893     
  0.476952       0.340966E-001  0.296378E-002  0.437534       0.390969       0.383894       0.612714       0.946594       0.989136       0.998181     
  0.832577       0.858667       0.999579       0.999750     
 
  0.509228       0.423079E-001  0.422982E-002  0.468331       0.420881       0.410757       0.633953       0.951792       0.990219       0.998485     
  0.841781       0.868147       0.999656       0.999801       0.485172       0.375406E-001  0.314591E-002  0.450844       0.402915       0.388722     
  0.616061       0.950983       0.989727       0.998345       0.838577       0.868969       0.999696       0.999833       0.526432       0.444203E-001
  0.539357E-002  0.475629       0.432239       0.430865       0.649881       0.958349       0.992520       0.998538       0.867226       0.882350     
  0.999740       0.999836       0.457152       0.317821E-001  0.230291E-002  0.426732       0.379548       0.364985       0.596688       0.948915     
  0.989043       0.998158       0.834113       0.860471       0.999666       0.999819       0.606692       0.722248E-001  0.137270E-001  0.556344     
  0.514507       0.504392       0.702374       0.970968       0.995210       0.998961       0.903179       0.903504       0.999814       0.999878     
  0.421955       0.233750E-001  0.173760E-002  0.379454       0.337665       0.340221       0.577872       0.941698       0.988266       0.997867     
  0.820570       0.843350       0.999517       0.999710     
 
  0.469392       0.321958E-001  0.276380E-002  0.424394       0.380293       0.379209       0.609685       0.949511       0.989863       0.998304     
  0.836985       0.857777       0.999619       0.999777       0.441443       0.278379E-001  0.203591E-002  0.404301       0.359780       0.353831     
  0.588370       0.947810       0.989183       0.998132       0.831097       0.857546       0.999658       0.999810       0.481086       0.329822E-001
  0.324306E-002  0.426728       0.386032       0.393133       0.621478       0.954946       0.991973       0.998337       0.858500       0.870991     
  0.999704       0.999812       0.408208       0.226105E-001  0.149592E-002  0.375583       0.332655       0.326468       0.565094       0.944778     
  0.988302       0.997898       0.823994       0.846914       0.999623       0.999794       0.562703       0.545666E-001  0.794760E-002  0.506738     
  0.465299       0.464312       0.674386       0.968020       0.994763       0.998805       0.894981       0.893023       0.999788       0.999860     
  0.363879       0.154478E-001  0.111464E-002  0.320003       0.285121       0.296397       0.540719       0.936506       0.987372       0.997527     
  0.808478       0.826132       0.999445       0.999664     
 
  0.428860       0.242222E-001  0.187403E-002  0.380406       0.340849       0.348565       0.585149       0.947303       0.989537       0.998120     
  0.832686       0.846923       0.999580       0.999750       0.397113       0.203860E-001  0.138972E-002  0.358144       0.318267       0.319921     
  0.560164       0.944591       0.988648       0.997915       0.823853       0.845371       0.999616       0.999785       0.434585       0.241322E-001
  0.202412E-002  0.377987       0.341274       0.356132       0.592322       0.951434       0.991420       0.998132       0.849770       0.858793     
  0.999664       0.999786       0.358942       0.158611E-001  0.104915E-002  0.325476       0.288147       0.289171       0.532747       0.940520     
  0.987558       0.997632       0.814048       0.832343       0.999575       0.999765       0.514209       0.400157E-001  0.446920E-002  0.453606     
  0.414059       0.422454       0.643899       0.964753       0.994276       0.998639       0.886136       0.881025       0.999758       0.999840     
  0.308709       0.102289E-001  0.796861E-003  0.265424       0.238371       0.256274       0.504445       0.931465       0.986536       0.997196     
  0.797417       0.808342       0.999367       0.999613     
 
  0.388062       0.180320E-001  0.133471E-002  0.336912       0.302907       0.318921       0.560446       0.945136       0.989234       0.997938     
  0.828755       0.835606       0.999537       0.999722       0.352781       0.147672E-001  0.100597E-002  0.313076       0.278829       0.287153     
  0.531550       0.941325       0.988125       0.997699       0.816873       0.832412       0.999569       0.999756       0.387575       0.174195E-001
  0.133887E-002  0.330219       0.298573       0.320124       0.562537       0.947846       0.990867       0.997927       0.841194       0.845694     
  0.999619       0.999756       0.308516       0.108681E-001  0.775974E-003  0.275677       0.245162       0.252133       0.498645       0.936042     
  0.986800       0.997357       0.804229       0.816158       0.999520       0.999732       0.464783       0.290191E-001  0.262734E-002  0.401208     
  0.364994       0.381919       0.612945       0.961411       0.993786       0.998477       0.877421       0.868166       0.999724       0.999817     
  0.257182       0.682537E-002  0.600074E-003  0.216223       0.197040       0.219477       0.468930       0.926479       0.985739       0.996879     
  0.787098       0.789922       0.999284       0.999558     
 
  0.347460       0.133088E-001  0.100098E-002  0.294503       0.266759       0.290328       0.535652       0.942987       0.988951       0.997759     
  0.825124       0.823828       0.999493       0.999690       0.309104       0.106143E-001  0.768755E-003  0.269794       0.241805       0.255665     
  0.502652       0.938005       0.987614       0.997487       0.810164       0.818617       0.999519       0.999725       0.340793       0.124387E-001
  0.946501E-003  0.284238       0.258410       0.285339       0.532262       0.944220       0.990324       0.997727       0.832961       0.831646     
  0.999571       0.999724       0.259131       0.737673E-002  0.594373E-003  0.228382       0.205230       0.216549       0.463708       0.931481     
  0.986058       0.997087       0.795043       0.798557       0.999457       0.999695       0.416194       0.209665E-001  0.167725E-002  0.351470     
  0.319698       0.343765       0.582320       0.958114       0.993315       0.998327       0.869225       0.854784       0.999688       0.999793     
  0.208903       0.457245E-002  0.454769E-003  0.171758       0.159920       0.185027       0.433261       0.921375       0.984955       0.996575     
  0.777174       0.770353       0.999192       0.999498     
 
  0.307548       0.976777E-002  0.782813E-003  0.253768       0.232636       0.262824       0.510835       0.940855       0.988688       0.997587     
  0.821792       0.811595       0.999445       0.999656       0.266773       0.760383E-002  0.610545E-003  0.228932       0.207418       0.225591     
  0.473589       0.934622       0.987114       0.997285       0.803734       0.803952       0.999463       0.999690       0.295026       0.882475E-002
  0.708289E-003  0.240778       0.221112       0.251967       0.501620       0.940570       0.989797       0.997536       0.825168       0.816661     
  0.999518       0.999689       0.214155       0.509201E-002  0.463078E-003  0.186544       0.170304       0.184308       0.429825       0.927020     
  0.985365       0.996842       0.786851       0.780380       0.999389       0.999654       0.367469       0.149421E-001  0.115082E-002  0.303359     
  0.276948       0.306764       0.551036       0.954769       0.992852       0.998187       0.861379       0.840391       0.999648       0.999766     
  0.162840       0.303970E-002  0.334686E-003  0.130888       0.125533       0.151671       0.395828       0.915919       0.984157       0.996282     
  0.767407       0.748552       0.999087       0.999429     
 
  0.268830       0.715544E-002  0.627218E-003  0.215264       0.200698       0.236455       0.486053       0.938750       0.988447       0.997427     
  0.818803       0.798906       0.999395       0.999620       0.226465       0.545611E-002  0.493033E-003  0.191033       0.175785       0.197077     
  0.444491       0.931192       0.986631       0.997096       0.797679       0.788454       0.999404       0.999653       0.249866       0.619898E-002
  0.545025E-003  0.199415       0.185959       0.219315       0.469880       0.936794       0.989274       0.997356       0.817675       0.800261     
  0.999458       0.999649       0.173106       0.355739E-002  0.356889E-003  0.149330       0.139197       0.154636       0.396278       0.922472     
  0.984691       0.996620       0.779203       0.761230       0.999315       0.999610       0.319445       0.105400E-001  0.841098E-003  0.257684     
  0.237155       0.271145       0.519236       0.951385       0.992400       0.998060       0.853978       0.824940       0.999604       0.999737     
  0.121284       0.202144E-002  0.236021E-003  0.953489E-001  0.948910E-001  0.120628       0.357447       0.910178       0.983364       0.996014     
  0.758142       0.724710       0.998968       0.999351     
 
  0.231809       0.525185E-002  0.505655E-003  0.179499       0.171059       0.211276       0.461364       0.936683       0.988229       0.997280     
  0.816210       0.785772       0.999342       0.999581       0.188818       0.393872E-002  0.396789E-003  0.156544       0.146953       0.170296     
  0.415494       0.927737       0.986172       0.996925       0.792128       0.772155       0.999340       0.999613       0.207339       0.437628E-002
  0.423511E-003  0.161882       0.154040       0.188447       0.437944       0.932961       0.988767       0.997194       0.810678       0.782743     
  0.999394       0.999607       0.136366       0.251435E-002  0.268896E-003  0.116754       0.111604       0.127560       0.363040       0.917775     
  0.984030       0.996423       0.772013       0.741023       0.999234       0.999561       0.272456       0.736878E-002  0.638376E-003  0.214685     
  0.200153       0.236729       0.486698       0.947914       0.991957       0.997947       0.846977       0.808261       0.999555       0.999705     
  0.883530E-001  0.138373E-002  0.163051E-003  0.681059E-001  0.705029E-001  0.948648E-001  0.321812       0.904609       0.982642       0.995798     
  0.750074       0.701088       0.998846       0.999271     
 
  0.196956       0.387327E-002  0.404722E-003  0.146901       0.143815       0.187361       0.436830       0.934664       0.988035       0.997148     
  0.814045       0.772222       0.999287       0.999539       0.154378       0.286746E-002  0.313885E-003  0.125784       0.120950       0.145408     
  0.386724       0.924267       0.985739       0.996774       0.787160       0.755048       0.999272       0.999570       0.169257       0.314503E-002
  0.328257E-003  0.129457       0.126151       0.160374       0.406856       0.929145       0.988286       0.997057       0.804285       0.764680     
  0.999327       0.999562       0.104442       0.179471E-002  0.197258E-003  0.889606E-001  0.875133E-001  0.103322       0.330361       0.912916     
  0.983382       0.996251       0.765323       0.719858       0.999145       0.999508       0.225485       0.506324E-002  0.485231E-003  0.173419     
  0.164748       0.202372       0.452107       0.944181       0.991505       0.997845       0.840141       0.789562       0.999498       0.999668     
  0.622778E-001  0.949530E-003  0.108854E-003  0.471363E-001  0.508744E-001  0.732252E-001  0.287841       0.898972       0.981955       0.995615     
  0.742752       0.677060       0.998717       0.999187     
 
  0.164691       0.287379E-002  0.319060E-003  0.117788       0.119050       0.164802       0.412519       0.932689       0.987865       0.997031     
  0.812302       0.758284       0.999229       0.999494       0.123563       0.210467E-002  0.242342E-003  0.989438E-001  0.977963E-001  0.122569     
  0.358303       0.920772       0.985333       0.996640       0.782801       0.737150       0.999200       0.999524       0.135076       0.227960E-002
  0.249664E-003  0.101312       0.101448       0.134526       0.375977       0.925219       0.987816       0.996936       0.798266       0.745737     
  0.999255       0.999515       0.775723E-001  0.128632E-002  0.140581E-003  0.658939E-001  0.668952E-001  0.820931E-001  0.298492       0.907862     
  0.982745       0.996100       0.759113       0.697863       0.999049       0.999451       0.182801       0.352985E-002  0.368661E-003  0.137392     
  0.133598       0.170798       0.418011       0.940395       0.991073       0.997760       0.833902       0.770114       0.999438       0.999628     
  0.417344E-001  0.635595E-003  0.688877E-004  0.310071E-001  0.350147E-001  0.548654E-001  0.254490       0.893003       0.981273       0.995456     
  0.735888       0.651788       0.998576       0.999095     
 
  0.135366       0.214340E-002  0.246626E-003  0.923485E-001  0.968403E-001  0.143700       0.388507       0.930739       0.987716       0.996929     
  0.810920       0.743991       0.999168       0.999446       0.966456E-001  0.155237E-002  0.182192E-003  0.760440E-001  0.774987E-001  0.101917     
  0.330374       0.917217       0.984948       0.996523       0.778959       0.718550       0.999123       0.999475       0.105185       0.166099E-002
  0.185517E-003  0.774361E-001  0.799159E-001  0.111118       0.345501       0.921152       0.987353       0.996831       0.792587       0.726000     
  0.999178       0.999464       0.557300E-001  0.918432E-003  0.970187E-004  0.473146E-001  0.496750E-001  0.639389E-001  0.267648       0.902567     
  0.982113       0.995970       0.753295       0.675168       0.998945       0.999389       0.146200       0.252904E-002  0.279295E-003  0.107587     
  0.107382       0.143111       0.385746       0.936638       0.990666       0.997690       0.828284       0.750738       0.999375       0.999587     
  0.258181E-001  0.401526E-003  0.399650E-004  0.187900E-001  0.223211E-001  0.392331E-001  0.220675       0.886372       0.980571       0.995312     
  0.729320       0.624127       0.998415       0.998989     
 
  0.109215       0.160262E-002  0.186384E-003  0.706532E-001  0.772438E-001  0.124125       0.364822       0.928781       0.987582       0.996838     
  0.809818       0.729344       0.999105       0.999396       0.737422E-001  0.114431E-002  0.133210E-003  0.569777E-001  0.600363E-001  0.835342E-001
  0.303063       0.913552       0.984578       0.996420       0.775497       0.699333       0.999041       0.999422       0.797714E-001  0.120994E-002
  0.134246E-003  0.576808E-001  0.615058E-001  0.903029E-001  0.315615       0.916913       0.986895       0.996740       0.787198       0.705559     
  0.999095       0.999410       0.384895E-001  0.645592E-003  0.643675E-004  0.327204E-001  0.355924E-001  0.486807E-001  0.237764       0.896923     
  0.981475       0.995856       0.747687       0.651691       0.998833       0.999322       0.114091       0.182580E-002  0.207066E-003  0.822721E-001
  0.845510E-001  0.118043       0.353936       0.932707       0.990262       0.997629       0.822926       0.730643       0.999308       0.999544     
  0.152721E-001  0.246540E-003  0.221146E-004  0.108741E-001  0.135964E-001  0.275699E-001  0.189788       0.879588       0.979905       0.995190     
  0.723577       0.596668       0.998246       0.998879     
 
  0.863489E-001  0.119638E-002  0.137426E-003  0.526891E-001  0.603018E-001  0.106072       0.341356       0.926772       0.987458       0.996759     
  0.808933       0.714255       0.999039       0.999343       0.547826E-001  0.837993E-003  0.945727E-004  0.415424E-001  0.453535E-001  0.674398E-001
  0.276451       0.909715       0.984214       0.996331       0.772260       0.679555       0.998955       0.999367       0.587984E-001  0.875726E-003
  0.943383E-004  0.417809E-001  0.461232E-001  0.721646E-001  0.286500       0.912472       0.986439       0.996661       0.782054       0.684518     
  0.999007       0.999353       0.250878E-001  0.437162E-003  0.402358E-004  0.213916E-001  0.241689E-001  0.358614E-001  0.208171       0.890664     
  0.980802       0.995751       0.742014       0.626750       0.998706       0.999247       0.867027E-001  0.132148E-002  0.149646E-003  0.613072E-001
  0.650429E-001  0.957838E-001  0.322813       0.928588       0.989862       0.997575       0.817833       0.709928       0.999235       0.999497     
  0.876849E-002  0.148494E-003  0.118601E-004  0.609677E-002  0.801694E-002  0.192931E-001  0.162562       0.872769       0.979278       0.995085     
  0.718538       0.570285       0.998076       0.998767     
 
  0.667635E-001  0.887704E-003  0.987350E-004  0.382994E-001  0.460093E-001  0.895149E-001  0.317948       0.924649       0.987339       0.996689     
  0.808199       0.698575       0.998969       0.999287       0.395382E-001  0.605963E-003  0.650787E-004  0.294134E-001  0.333236E-001  0.535955E-001
  0.250619       0.905642       0.983846       0.996251       0.769098       0.659264       0.998863       0.999308       0.420287E-001  0.625761E-003
  0.642106E-004  0.293587E-001  0.336048E-001  0.566899E-001  0.258332       0.907793       0.985982       0.996589       0.777088       0.662980     
  0.998913       0.999292       0.156874E-001  0.288284E-003  0.241272E-004  0.134295E-001  0.157652E-001  0.259658E-001  0.180660       0.884066     
  0.980128       0.995657       0.736596       0.601711       0.998572       0.999167       0.633489E-001  0.942108E-003  0.103779E-003  0.439059E-001
  0.482466E-001  0.758343E-001  0.291614       0.924137       0.989454       0.997522       0.812917       0.687995       0.999155       0.999446     
  0.474456E-002  0.851515E-004  0.595962E-005  0.320577E-002  0.444292E-002  0.132403E-001  0.137517       0.865513       0.978649       0.994984     
  0.713793       0.543661       0.997894       0.998647     
 
  0.503748E-001  0.651461E-003  0.690090E-004  0.271185E-001  0.342519E-001  0.744846E-001  0.294546       0.922355       0.987217       0.996625     
  0.807570       0.682203       0.998894       0.999228       0.276657E-001  0.430241E-003  0.433145E-004  0.201759E-001  0.237520E-001  0.419280E-001
  0.225712       0.901307       0.983473       0.996178       0.765985       0.638546       0.998766       0.999245       0.290715E-001  0.438952E-003
  0.422205E-004  0.199634E-001  0.237224E-001  0.437798E-001  0.231285       0.902840       0.985519       0.996522       0.772238       0.641049     
  0.998814       0.999228       0.952990E-002  0.186508E-003  0.140613E-004  0.818896E-002  0.998104E-002  0.186948E-001  0.156000       0.877299     
  0.979469       0.995571       0.731553       0.577363       0.998434       0.999085       0.441686E-001  0.654235E-003  0.684335E-004  0.299703E-001
  0.342231E-001  0.583884E-001  0.260494       0.919303       0.989041       0.997471       0.808276       0.664769       0.999066       0.999389     
  0.227776E-002  0.439396E-004  0.262241E-005  0.147934E-002  0.217640E-002  0.867182E-002  0.113098       0.857152       0.977966       0.994878     
  0.708994       0.514797       0.997685       0.998508     
 
  0.370125E-001  0.470821E-003  0.468602E-004  0.187037E-001  0.248486E-001  0.610067E-001  0.271140       0.919819       0.987088       0.996566     
  0.806990       0.665022       0.998815       0.999166       0.187304E-001  0.298517E-003  0.278143E-004  0.133727E-001  0.163775E-001  0.323012E-001
  0.201872       0.896693       0.983093       0.996110       0.762930       0.617502       0.998663       0.999180       0.194169E-001  0.300750E-003
  0.267437E-004  0.130999E-001  0.161775E-001  0.332507E-001  0.205513       0.897576       0.985047       0.996458       0.767435       0.618806     
  0.998709       0.999160       0.552023E-002  0.116168E-003  0.780149E-005  0.475451E-002  0.602169E-002  0.132625E-001  0.133286       0.870096     
  0.978798       0.995487       0.726623       0.552874       0.998287       0.998998       0.301250E-001  0.451316E-003  0.441240E-004  0.200075E-001
  0.237405E-001  0.445981E-001  0.231954       0.914423       0.988653       0.997422       0.804252       0.642062       0.998975       0.999331     
  0.101280E-002  0.211593E-004  0.106001E-005  0.623852E-003  0.978385E-003  0.561160E-002  0.915030E-001  0.848209       0.977277       0.994772     
  0.704547       0.485935       0.997462       0.998357     
 
  0.263259E-001  0.332811E-003  0.307473E-004  0.125154E-001  0.174834E-001  0.489918E-001  0.247523       0.916927       0.986942       0.996510     
  0.806387       0.646750       0.998728       0.999100       0.122446E-001  0.201576E-003  0.171880E-004  0.854050E-002  0.108939E-001  0.245261E-001
  0.179232       0.891781       0.982707       0.996044       0.759923       0.596202       0.998555       0.999110       0.124936E-001  0.200374E-003
  0.162728E-004  0.827066E-002  0.106250E-001  0.248582E-001  0.181147       0.891966       0.984563       0.996396       0.762637       0.596313     
  0.998597       0.999088       0.304112E-002  0.694049E-004  0.410887E-005  0.261740E-002  0.344845E-002  0.929674E-002  0.112605       0.862425     
  0.978113       0.995404       0.721776       0.528313       0.998130       0.998905       0.200236E-001  0.306595E-003  0.276783E-004  0.130025E-001
  0.160338E-001  0.337511E-001  0.205629       0.909429       0.988282       0.997374       0.800723       0.619664       0.998881       0.999270     
  0.444600E-003  0.100399E-004  0.422495E-006  0.256028E-003  0.428431E-003  0.371983E-002  0.739940E-001  0.839339       0.976624       0.994673     
  0.700688       0.459254       0.997242       0.998204     
 
  0.180382E-001  0.228869E-003  0.193961E-004  0.808997E-002  0.118759E-001  0.385000E-001  0.223807       0.913610       0.986774       0.996454     
  0.805752       0.627331       0.998634       0.999029       0.771247E-002  0.131995E-003  0.101941E-004  0.523966E-002  0.696929E-002  0.183756E-001
  0.157895       0.886546       0.982311       0.995979       0.756928       0.574701       0.998440       0.999036       0.772803E-002  0.129353E-003
  0.948678E-005  0.500931E-002  0.670060E-002  0.183193E-001  0.158317       0.885991       0.984066       0.996334       0.757843       0.573632     
  0.998479       0.999013       0.158975E-002  0.396473E-004  0.204938E-005  0.136007E-002  0.186695E-002  0.645738E-002  0.940054E-001  0.854265     
  0.977412       0.995320       0.717030       0.503761       0.997964       0.998807       0.128189E-001  0.202304E-003  0.166602E-004  0.811868E-002
  0.104161E-001  0.251579E-001  0.180867       0.904177       0.987916       0.997326       0.797592       0.597035       0.998781       0.999206     
  0.182408E-003  0.444711E-005  0.156266E-006  0.957632E-004  0.172216E-003  0.245099E-002  0.588864E-001  0.829886       0.975955       0.994573     
  0.697006       0.432769       0.997008       0.998036     
 
  0.119896E-001  0.154100E-003  0.118688E-004  0.509480E-002  0.784377E-002  0.297910E-001  0.200806       0.909909       0.986586       0.996400     
  0.805105       0.607329       0.998533       0.998956       0.467152E-002  0.835771E-004  0.578870E-005  0.307845E-002  0.427599E-002  0.136063E-001
  0.137965       0.880966       0.981904       0.995914       0.753935       0.553063       0.998320       0.998958       0.458547E-002  0.806645E-004
  0.528555E-005  0.290097E-002  0.404506E-002  0.133323E-001  0.137126       0.879635       0.983557       0.996271       0.753076       0.550828     
  0.998354       0.998933       0.787169E-003  0.215885E-004  0.966266E-006  0.663800E-003  0.951672E-003  0.445505E-002  0.774927E-001  0.845601     
  0.976697       0.995236       0.712409       0.479296       0.997789       0.998704       0.788750E-002  0.129206E-003  0.959809E-005  0.485509E-002
  0.648971E-002  0.185001E-001  0.157774       0.898649       0.987557       0.997276       0.794862       0.574246       0.998676       0.999138     
  0.665099E-004  0.173823E-005  0.472199E-007  0.304091E-004  0.595446E-004  0.156782E-002  0.454347E-001  0.819248       0.975226       0.994464     
  0.693285       0.405155       0.996746       0.997841     
 
  0.773488E-002  0.101587E-003  0.705066E-005  0.312735E-002  0.503929E-002  0.227495E-001  0.178804       0.905819       0.986376       0.996346     
  0.804455       0.586934       0.998426       0.998879       0.271571E-002  0.510337E-004  0.313924E-005  0.172600E-002  0.250829E-002  0.997327E-002
  0.119509       0.875039       0.981489       0.995849       0.751022       0.531339       0.998192       0.998874       0.260491E-002  0.484603E-004
  0.280821E-005  0.160070E-002  0.233052E-002  0.960220E-002  0.117649       0.872898       0.983039       0.996208       0.748418       0.527963     
  0.998223       0.998849       0.368909E-003  0.111673E-004  0.430504E-006  0.302632E-003  0.454837E-003  0.305776E-002  0.630302E-001  0.836416     
  0.975967       0.995149       0.707930       0.454980       0.997603       0.998594       0.452548E-002  0.775968E-004  0.511158E-005  0.268855E-002
  0.375869E-002  0.132335E-001  0.135387       0.892489       0.987178       0.997224       0.792264       0.550219       0.998558       0.999061     
  0.220940E-004  0.602310E-006  0.421994E-008  0.821649E-005  0.177533E-004  0.978407E-003  0.340540E-001  0.807562       0.974450       0.994350     
  0.689695       0.377149       0.996457       0.997616     
 
  0.480974E-002  0.651295E-004  0.403481E-005  0.185643E-002  0.312688E-002  0.171090E-001  0.157699       0.901256       0.986141       0.996291     
  0.803794       0.565972       0.998311       0.998798       0.151277E-002  0.299794E-004  0.162257E-005  0.920187E-003  0.140263E-002  0.724922E-002
  0.102580       0.868771       0.981069       0.995783       0.748306       0.509586       0.998058       0.998785       0.141453E-002  0.279681E-004
  0.142028E-005  0.838259E-003  0.127739E-002  0.685758E-002  0.999328E-001  0.865788       0.982516       0.996144       0.743992       0.505092     
  0.998084       0.998761       0.159180E-003  0.533015E-005  0.170121E-006  0.124246E-003  0.197021E-003  0.206221E-002  0.501527E-001  0.826349     
  0.975197       0.995059       0.703467       0.430058       0.997401       0.998472       0.244988E-002  0.442506E-004  0.254919E-005  0.139256E-002
  0.204262E-002  0.932627E-002  0.114699       0.885804       0.986784       0.997169       0.789682       0.525824       0.998431       0.998975     
  0.755412E-005  0.203788E-006  0.876417E-009  0.211942E-005  0.507935E-005  0.617858E-003  0.254279E-001  0.795882       0.973692       0.994241     
  0.686607       0.351303       0.996167       0.997374     
 
  0.287771E-002  0.405514E-004  0.222229E-005  0.106360E-002  0.187055E-002  0.126897E-001  0.137672       0.896173       0.985874       0.996235     
  0.803116       0.544519       0.998188       0.998711       0.806453E-003  0.169025E-004  0.798595E-006  0.464850E-003  0.745489E-003  0.523146E-002
  0.871830E-001  0.862143       0.980643       0.995716       0.745839       0.487826       0.997917       0.998690       0.733583E-003  0.154653E-004
  0.683046E-006  0.414972E-003  0.663853E-003  0.486528E-002  0.839934E-001  0.858299       0.981990       0.996078       0.739869       0.482273     
  0.997939       0.998668       0.642750E-004  0.236176E-005  0.277674E-007  0.461756E-004  0.777664E-004  0.137456E-002  0.391389E-001  0.815544     
  0.974399       0.994965       0.699160       0.405090       0.997183       0.998341       0.130646E-002  0.248861E-004  0.154656E-005  0.704863E-003
  0.108521E-002  0.665082E-002  0.970302E-001  0.879056       0.986401       0.997117       0.787260       0.502771       0.998303       0.998886     
  0.261394E-005  0.648207E-007  0.876282E-009  0.495841E-006  0.132903E-005  0.384629E-003  0.186699E-001  0.783663       0.972906       0.994133     
  0.683841       0.326368       0.995861       0.997105     
 
  0.165405E-002  0.244837E-004  0.117723E-005  0.586712E-003  0.107662E-002  0.929672E-002  0.118875       0.890524       0.985572       0.996178     
  0.802419       0.522653       0.998056       0.998619       0.410871E-003  0.914416E-005  0.374782E-006  0.222564E-003  0.376208E-003  0.374460E-002
  0.732071E-001  0.855010       0.980192       0.995647       0.743555       0.465913       0.997765       0.998583       0.356635E-003  0.803534E-005
  0.199215E-006  0.189483E-003  0.319854E-003  0.340350E-002  0.694822E-001  0.850212       0.981447       0.996010       0.735977       0.459003     
  0.997781       0.998566       0.256849E-004  0.101048E-005  0.681904E-008  0.162658E-004  0.292275E-004  0.921157E-003  0.303175E-001  0.804551     
  0.973615       0.994873       0.695260       0.381358       0.996961       0.998202       0.669448E-003  0.134653E-004  0.154600E-005  0.338530E-003
  0.548781E-003  0.473399E-002  0.813749E-001  0.871966       0.986010       0.997065       0.784883       0.480024       0.998168       0.998788     
  0.913857E-006  0.187636E-007  0.876170E-009  0.100596E-006  0.305665E-006  0.231122E-003  0.132990E-001  0.770316       0.972032       0.994018     
  0.681305       0.301497       0.995525       0.996792     
 
  0.912398E-003  0.143127E-004  0.601428E-006  0.310776E-003  0.594824E-003  0.673967E-002  0.101454       0.884270       0.985230       0.996119     
  0.801708       0.500470       0.997914       0.998519       0.199943E-003  0.474918E-005  0.101563E-006  0.101073E-003  0.180157E-003  0.265424E-002
  0.605699E-001  0.847197       0.979689       0.995577       0.741370       0.443716       0.997599       0.998458       0.165343E-003  0.396593E-005
  0.615853E-007  0.807273E-004  0.144493E-003  0.236811E-002  0.567646E-001  0.841687       0.980902       0.995941       0.732430       0.435900     
  0.997614       0.998456       0.100847E-004  0.408983E-006  0.681691E-008  0.528269E-005  0.101973E-004  0.611804E-003  0.231594E-001  0.793108     
  0.972818       0.994781       0.691673       0.358244       0.996728       0.998050       0.327831E-003  0.695331E-005  0.154555E-005  0.152670E-003
  0.261792E-003  0.335388E-002  0.675108E-001  0.864466       0.985608       0.997011       0.782547       0.457405       0.998025       0.998680     
  0.320359E-006  0.346245E-008  0.876066E-009  0.159853E-007  0.562281E-007  0.129097E-003  0.893833E-002  0.754720       0.970958       0.993884     
  0.678928       0.275350       0.995130       0.996401     
 
  0.482756E-003  0.808804E-005  0.218180E-006  0.157590E-003  0.314662E-003  0.484228E-002  0.855178E-001  0.877374       0.984838       0.996058     
  0.800987       0.478067       0.997761       0.998407       0.931700E-004  0.236591E-005  0.258258E-007  0.434214E-004  0.816830E-004  0.186259E-002
  0.493077E-001  0.838637       0.979118       0.995504       0.739277       0.421310       0.997418       0.998310       0.750331E-004  0.189238E-005
  0.615491E-007  0.327393E-004  0.623832E-004  0.165300E-002  0.460327E-001  0.832941       0.980363       0.995872       0.729301       0.413592     
  0.997442       0.998339       0.392773E-005  0.154909E-006  0.681530E-008  0.155513E-005  0.325761E-005  0.399653E-003  0.173914E-001  0.781111     
  0.971989       0.994686       0.688393       0.335564       0.996480       0.997876       0.153719E-003  0.341555E-005  0.154519E-005  0.643595E-004
  0.117395E-003  0.236358E-002  0.553864E-001  0.856554       0.985196       0.996954       0.780310       0.434964       0.997874       0.998561     
  0.127996E-006  0.776094E-009  0.875966E-009  0.224862E-008  0.930636E-008  0.697235E-004  0.580123E-002  0.737891       0.969691       0.993740     
  0.676873       0.250166       0.994694       0.995931     
 
  0.245176E-003  0.441223E-005  0.702320E-007  0.762701E-004  0.158985E-003  0.345117E-002  0.711298E-001  0.869799       0.984390       0.995995     
  0.800260       0.455533       0.997595       0.998280       0.418045E-004  0.112955E-005  0.218933E-007  0.175845E-004  0.349595E-004  0.129282E-002
  0.394313E-001  0.829276       0.978455       0.995429       0.737247       0.398800       0.997217       0.998128       0.329718E-004  0.856452E-006
  0.615327E-007  0.123295E-004  0.251758E-004  0.114517E-002  0.368525E-001  0.823749       0.979807       0.995802       0.726460       0.391530     
  0.997259       0.998206       0.155250E-005  0.494791E-007  0.681407E-008  0.411737E-006  0.947996E-006  0.255997E-003  0.128348E-001  0.768564     
  0.971119       0.994587       0.685461       0.313364       0.996214       0.997671       0.678259E-004  0.159141E-005  0.154491E-005  0.245676E-004
  0.480904E-004  0.163794E-002  0.446457E-001  0.847997       0.984766       0.996892       0.778184       0.412150       0.997710       0.998430     
  0.644161E-007  0.775762E-009  0.875861E-009  0.119686E-009  0.148805E-008  0.374315E-004  0.370111E-002  0.720619       0.968228       0.993593     
  0.675079       0.227054       0.994227       0.995382     
 
  0.119785E-003  0.232090E-005  0.475051E-007  0.351220E-004  0.765205E-004  0.244007E-002  0.583116E-001  0.861503       0.983874       0.995931     
  0.799527       0.432945       0.997415       0.998134       0.182309E-004  0.516188E-006  0.218882E-007  0.668733E-005  0.140854E-004  0.885986E-003
  0.309356E-001  0.819066       0.977671       0.995350       0.735252       0.376292       0.996991       0.997897       0.141861E-004  0.358509E-006
  0.615198E-007  0.429118E-005  0.946271E-005  0.785479E-003  0.291052E-001  0.814083       0.979231       0.995729       0.723896       0.369732     
  0.997063       0.998053       0.639894E-006  0.122698E-007  0.681312E-008  0.972585E-007  0.250143E-006  0.160251E-003  0.929042E-002  0.755413     
  0.970200       0.994481       0.682875       0.291656       0.995926       0.997431       0.282774E-004  0.145661E-005  0.154468E-005  0.836074E-005
  0.177492E-004  0.111049E-002  0.352416E-001  0.838684       0.984315       0.996826       0.776220       0.388902       0.997531       0.998284     
  0.426486E-007  0.775474E-009  0.875733E-009  0.102665E-011  0.113267E-009  0.193448E-004  0.226466E-002  0.702050       0.966449       0.993433     
  0.673400       0.204779       0.993702       0.994716     
 
  0.565592E-004  0.117569E-005  0.474980E-007  0.153424E-004  0.350005E-004  0.171015E-002  0.470660E-001  0.852443       0.983275       0.995863     
  0.798790       0.410376       0.997219       0.997962       0.783042E-005  0.225984E-006  0.218837E-007  0.237802E-005  0.532750E-005  0.598061E-003
  0.237630E-001  0.807971       0.976722       0.995267       0.733301       0.353872       0.996734       0.997600       0.607915E-005  0.128044E-006
  0.615097E-007  0.137730E-005  0.330505E-005  0.531315E-003  0.226385E-001  0.803847       0.978623       0.995650       0.721578       0.348165     
  0.996854       0.997882       0.282900E-006  0.702260E-008  0.681233E-008  0.204869E-007  0.596562E-007  0.975865E-004  0.655659E-002  0.741439     
  0.969162       0.994369       0.680526       0.270349       0.995607       0.997138       0.120082E-004  0.145536E-005  0.154452E-005  0.271416E-005
  0.627805E-005  0.752045E-003  0.276015E-001  0.829100       0.983855       0.996759       0.774574       0.366645       0.997349       0.998134     
  0.269365E-007  0.775183E-009  0.875556E-009  0.193921E-012  0.393491E-011  0.961963E-005  0.132258E-002  0.682143       0.964204       0.993256     
  0.671832       0.183426       0.993098       0.993878     
 
  0.260174E-004  0.573765E-006  0.474916E-007  0.633705E-005  0.151750E-004  0.118616E-002  0.373484E-001  0.842578       0.982567       0.995793     
  0.798048       0.387895       0.997003       0.997756       0.337917E-005  0.822099E-007  0.218794E-007  0.787569E-006  0.188511E-005  0.396443E-003
  0.178405E-001  0.795953       0.975550       0.995174       0.731418       0.331608       0.996438       0.997216       0.264922E-005  0.585989E-007
  0.615014E-007  0.407779E-006  0.107162E-005  0.352818E-003  0.172825E-001  0.792889       0.977964       0.995567       0.719453       0.326776     
  0.996628       0.997692       0.142653E-006  0.701848E-008  0.681158E-008  0.119343E-008  0.128755E-007  0.575960E-004  0.448364E-002  0.726392     
  0.967908       0.994249       0.678292       0.249385       0.995245       0.996773       0.527729E-005  0.145450E-005  0.154440E-005  0.124544E-005
  0.211809E-005  0.505882E-003  0.214012E-001  0.819128       0.983375       0.996690       0.773216       0.345159       0.997162       0.997980     
  0.241986E-007  0.774803E-009  0.875270E-009  0.193821E-012  0.199469E-011  0.439996E-005  0.706305E-003  0.659519       0.961083       0.993037     
  0.670305       0.161903       0.992339       0.992698     
 
  0.118058E-004  0.253628E-006  0.474857E-007  0.246669E-005  0.621921E-005  0.812180E-003  0.291011E-001  0.831864       0.981717       0.995716     
  0.797301       0.365562       0.996763       0.997503       0.149924E-005  0.260854E-007  0.218752E-007  0.241681E-006  0.622242E-006  0.257300E-003
  0.130454E-001  0.782979       0.974096       0.995071       0.729621       0.309581       0.996095       0.996722       0.120689E-005  0.585514E-007
  0.614946E-007  0.824828E-007  0.322048E-006  0.229281E-003  0.129168E-001  0.781107       0.977229       0.995479       0.717492       0.305590     
  0.996383       0.997482       0.853584E-007  0.701516E-008  0.681079E-008  0.304857E-010  0.134305E-008  0.329149E-004  0.295886E-002  0.710204     
  0.966392       0.994119       0.676152       0.228849       0.994834       0.996327       0.239938E-005  0.145387E-005  0.154431E-005  0.124478E-005
  0.110762E-005  0.334001E-003  0.163044E-001  0.808484       0.982866       0.996617       0.772070       0.323941       0.996960       0.997815     
  0.241791E-007  0.774322E-009  0.874856E-009  0.193701E-012  0.199381E-011  0.193964E-005  0.357186E-003  0.635459       0.957080       0.992780     
  0.668919       0.141743       0.991451       0.991178     
 
  0.537326E-005  0.993028E-007  0.474798E-007  0.901837E-006  0.240277E-005  0.547452E-003  0.222146E-001  0.820257       0.980689       0.995632     
  0.796550       0.343440       0.996493       0.997190       0.699699E-006  0.232911E-007  0.218708E-007  0.685859E-007  0.190635E-006  0.163148E-003
  0.927163E-002  0.769022       0.972302       0.994959       0.727905       0.287889       0.995698       0.996110       0.591822E-006  0.585148E-007
  0.614889E-007  0.808759E-008  0.763169E-007  0.145558E-003  0.943683E-002  0.768462       0.976401       0.995386       0.715684       0.284697     
  0.996118       0.997253       0.450442E-007  0.701196E-008  0.680967E-008  0.173365E-010  0.959603E-010  0.181136E-004  0.186711E-002  0.692699     
  0.964443       0.993972       0.674118       0.208674       0.994345       0.995726       0.166830E-005  0.145338E-005  0.154421E-005  0.124426E-005
  0.110757E-005  0.215863E-003  0.121638E-001  0.797063       0.982298       0.996538       0.771056       0.303010       0.996735       0.997629     
  0.241563E-007  0.773767E-009  0.874337E-009  0.193569E-012  0.199270E-011  0.869732E-006  0.179924E-003  0.611583       0.952509       0.992501     
  0.667665       0.124086       0.990499       0.989453     
 
  0.249860E-005  0.589042E-007  0.474736E-007  0.308911E-006  0.872235E-006  0.362305E-003  0.165624E-001  0.807720       0.979431       0.995541     
  0.795793       0.321596       0.996187       0.996803       0.357986E-006  0.232734E-007  0.218659E-007  0.617811E-008  0.540764E-007  0.100921E-003
  0.639240E-002  0.754059       0.970136       0.994834       0.726223       0.266634       0.995246       0.995377       0.292780E-006  0.584861E-007
  0.614837E-007  0.189661E-008  0.124794E-007  0.901596E-004  0.673032E-002  0.754935       0.975462       0.995288       0.714010       0.264196     
  0.995830       0.997001       0.349937E-007  0.700826E-008  0.680786E-008  0.173270E-010  0.774548E-010  0.951016E-005  0.111103E-002  0.673576     
  0.961735       0.993797       0.672211       0.188741       0.993737       0.994839       0.166742E-005  0.145296E-005  0.154409E-005  0.124383E-005
  0.110748E-005  0.136287E-003  0.886001E-002  0.784776       0.981611       0.996452       0.770113       0.282410       0.996482       0.997399     
  0.241294E-007  0.773096E-009  0.873679E-009  0.193412E-012  0.199129E-011  0.379049E-006  0.875771E-004  0.586645       0.947195       0.992181     
  0.666410       0.107765       0.989430       0.987456     
 
  0.121477E-005  0.588658E-007  0.474664E-007  0.681302E-007  0.296573E-006  0.234889E-003  0.120284E-001  0.794225       0.977871       0.995442     
  0.795028       0.300105       0.995836       0.996324       0.203733E-006  0.232572E-007  0.218603E-007  0.383179E-009  0.847071E-008  0.608351E-004
  0.426933E-002  0.738077       0.967576       0.994696       0.724538       0.245907       0.994736       0.994523       0.151858E-006  0.584623E-007
  0.614783E-007  0.189567E-008  0.435355E-008  0.544408E-004  0.467896E-002  0.740517       0.974381       0.995182       0.712457       0.244182     
  0.995516       0.996719       0.347927E-007  0.700403E-008  0.680520E-008  0.173166E-010  0.774198E-010  0.487137E-005  0.634817E-003  0.653487     
  0.958197       0.993591       0.670502       0.169854       0.993019       0.993636       0.166661E-005  0.145258E-005  0.154395E-005  0.124346E-005
  0.110736E-005  0.839844E-004  0.629327E-002  0.771598       0.980748       0.996358       0.769228       0.262228       0.996200       0.997114     
  0.240969E-007  0.772270E-009  0.872846E-009  0.193223E-012  0.198952E-011  0.160703E-006  0.414632E-004  0.560750       0.941084       0.991810     
  0.665153       0.928123E-001  0.988228       0.985163     
 
  0.630324E-006  0.588295E-007  0.474578E-007  0.819391E-008  0.797487E-007  0.148908E-003  0.848606E-002  0.779747       0.975939       0.995332     
  0.794250       0.279040       0.995432       0.995733       0.102154E-006  0.232417E-007  0.218536E-007  0.294702E-009  0.107716E-008  0.357119E-004
  0.276231E-002  0.721080       0.964568       0.994541       0.722854       0.225787       0.994163       0.993533       0.115241E-006  0.584416E-007
  0.614724E-007  0.189487E-008  0.435327E-008  0.320329E-004  0.316584E-002  0.725205       0.973113       0.995068       0.711015       0.224741     
  0.995175       0.996388       0.347593E-007  0.699893E-008  0.680146E-008  0.173044E-010  0.773741E-010  0.245771E-005  0.351871E-003  0.632720     
  0.953783       0.993348       0.668904       0.152253       0.992185       0.992094       0.166586E-005  0.145222E-005  0.154377E-005  0.124311E-005
  0.110724E-005  0.504630E-004  0.435617E-002  0.757498       0.979677       0.996255       0.768407       0.242526       0.995890       0.996763     
  0.240567E-007  0.771231E-009  0.871779E-009  0.192990E-012  0.198726E-011  0.662906E-007  0.191117E-004  0.534018       0.934012       0.991369     
  0.663892       0.792412E-001  0.986864       0.982519     
 
  0.327605E-006  0.587931E-007  0.474469E-007  0.200831E-008  0.153068E-007  0.921849E-004  0.580429E-002  0.764266       0.973573       0.995208     
  0.793455       0.258470       0.994968       0.995012       0.672817E-007  0.232255E-007  0.218452E-007  0.294487E-009  0.885303E-009  0.204036E-004
  0.172746E-002  0.703067       0.961024       0.994364       0.721176       0.206356       0.993518       0.992372       0.115185E-006  0.584227E-007
  0.614652E-007  0.189416E-008  0.435289E-008  0.183674E-004  0.208185E-002  0.708994       0.971593       0.994945       0.709652       0.205952     
  0.994799       0.995987       0.347169E-007  0.699234E-008  0.679620E-008  0.172891E-010  0.773148E-010  0.120612E-005  0.188201E-003  0.610918     
  0.948332       0.993052       0.667299       0.135605       0.991206       0.990163       0.166515E-005  0.145185E-005  0.154354E-005  0.124278E-005
  0.110709E-005  0.290486E-004  0.290552E-002  0.741952       0.978349       0.996138       0.767632       0.222777       0.995542       0.996331     
  0.240064E-007  0.769919E-009  0.870415E-009  0.192697E-012  0.198441E-011  0.267899E-007  0.863197E-005  0.506567       0.925857       0.990840     
  0.662625       0.670365E-001  0.985302       0.979457     
 
  0.171896E-006  0.587552E-007  0.474330E-007  0.200702E-008  0.490613E-008  0.556750E-004  0.384311E-002  0.747768       0.970680       0.995066     
  0.792641       0.238460       0.994432       0.994130       0.647606E-007  0.232081E-007  0.218347E-007  0.294265E-009  0.884976E-009  0.113468E-004
  0.104239E-002  0.684046       0.956883       0.994159       0.719510       0.187688       0.992792       0.991019       0.115129E-006  0.584041E-007
  0.614561E-007  0.189349E-008  0.435236E-008  0.102675E-004  0.132934E-002  0.691893       0.969762       0.994811       0.708342       0.187885     
  0.994383       0.995495       0.346643E-007  0.698392E-008  0.678913E-008  0.172698E-010  0.772386E-010  0.576303E-006  0.980942E-004  0.588148     
  0.941845       0.992690       0.665683       0.119976       0.990062       0.987840       0.166448E-005  0.145148E-005  0.154327E-005  0.124245E-005
  0.110693E-005  0.163346E-004  0.189267E-002  0.725482       0.976777       0.996009       0.766942       0.203804       0.995163       0.995826     
  0.239413E-007  0.768197E-009  0.868608E-009  0.192314E-012  0.198066E-011  0.105576E-007  0.373700E-005  0.477402       0.916220       0.990175     
  0.661296       0.557644E-001  0.983462       0.975862     
 
  0.122654E-006  0.587141E-007  0.474147E-007  0.200567E-008  0.490466E-008  0.327757E-004  0.245572E-002  0.730243       0.967134       0.994898     
  0.791806       0.219073       0.993812       0.993036       0.646998E-007  0.231889E-007  0.218218E-007  0.294029E-009  0.884545E-009  0.614384E-005
  0.608411E-003  0.664038       0.952120       0.993925       0.717859       0.169838       0.991980       0.989465       0.115072E-006  0.583847E-007
  0.614444E-007  0.189282E-008  0.435163E-008  0.559983E-005  0.824652E-003  0.673925       0.967568       0.994663       0.707078       0.170602     
  0.993922       0.994886       0.345986E-007  0.697313E-008  0.677976E-008  0.172452E-010  0.771393E-010  0.268268E-006  0.502074E-004  0.564482     
  0.934264       0.992243       0.664050       0.105412       0.988740       0.985123       0.166379E-005  0.145107E-005  0.154293E-005  0.124210E-005
  0.110672E-005  0.916662E-005  0.122454E-002  0.708714       0.974968       0.995868       0.766321       0.186260       0.994757       0.995237     
  0.238596E-007  0.766008E-009  0.866299E-009  0.191826E-012  0.197589E-011  0.482211E-008  0.160385E-005  0.447872       0.905195       0.989361     
  0.659930       0.459226E-001  0.981373       0.971821     
 
  0.122545E-006  0.586676E-007  0.473907E-007  0.200417E-008  0.490255E-008  0.187986E-004  0.151267E-002  0.711686       0.962851       0.994699     
  0.790949       0.200368       0.993095       0.991695       0.646287E-007  0.231666E-007  0.218056E-007  0.293757E-009  0.883961E-009  0.323989E-005
  0.344659E-003  0.643072       0.946617       0.993650       0.716211       0.152865       0.991061       0.987673       0.115007E-006  0.583624E-007
  0.614286E-007  0.189209E-008  0.435065E-008  0.298215E-005  0.497487E-003  0.655113       0.964920       0.994497       0.705861       0.154156     
  0.993402       0.994111       0.345166E-007  0.695937E-008  0.676757E-008  0.172140E-010  0.770116E-010  0.122007E-006  0.252607E-004  0.540010     
  0.925499       0.991689       0.662394       0.919457E-001  0.987216       0.981985       0.166300E-005  0.145057E-005  0.154250E-005  0.124169E-005
  0.110645E-005  0.503997E-005  0.776702E-003  0.691130       0.972823       0.995709       0.765705       0.169528       0.994310       0.994531     
  0.237635E-007  0.763392E-009  0.863531E-009  0.191245E-012  0.197019E-011  0.482211E-008  0.710046E-006  0.419437       0.893235       0.988416     
  0.658559       0.377560E-001  0.979128       0.967530     
 
  0.122416E-006  0.586142E-007  0.473596E-007  0.200247E-008  0.489969E-008  0.105027E-004  0.900933E-003  0.692101       0.957779       0.994460     
  0.790065       0.182396       0.992272       0.990091       0.645428E-007  0.231401E-007  0.217850E-007  0.293436E-009  0.883192E-009  0.166489E-005
  0.191068E-003  0.621186       0.940287       0.993324       0.714554       0.136819       0.990015       0.985604       0.114932E-006  0.583353E-007
  0.614068E-007  0.189122E-008  0.434931E-008  0.155213E-005  0.291974E-003  0.635489       0.961698       0.994306       0.704687       0.138592     
  0.992809       0.993130       0.344145E-007  0.694199E-008  0.675199E-008  0.171749E-010  0.768494E-010  0.549361E-007  0.125186E-004  0.514841     
  0.915519       0.991004       0.660712       0.795981E-001  0.985476       0.978398       0.166209E-005  0.144997E-005  0.154195E-005  0.124121E-005
  0.110611E-005  0.271952E-005  0.483283E-003  0.672778       0.970287       0.995529       0.765088       0.153658       0.993819       0.993695     
  0.236479E-007  0.760213E-009  0.860159E-009  0.190537E-012  0.196326E-011  0.481407E-008  0.314107E-006  0.391084       0.879979       0.987287     
  0.657119       0.307402E-001  0.976640       0.962833     
 
  0.122261E-006  0.585505E-007  0.473191E-007  0.200042E-008  0.489584E-008  0.571586E-005  0.521717E-003  0.671496       0.951794       0.994170     
  0.789144       0.165209       0.991323       0.988187       0.644403E-007  0.231084E-007  0.217594E-007  0.293058E-009  0.882237E-009  0.833940E-006
  0.104112E-003  0.598440       0.933110       0.992938       0.712887       0.121741       0.988834       0.983258       0.114842E-006  0.583013E-007
  0.613775E-007  0.189018E-008  0.434750E-008  0.791264E-006  0.167033E-003  0.615101       0.957837       0.994082       0.703556       0.123948     
  0.992134       0.991914       0.342858E-007  0.691985E-008  0.673196E-008  0.171253E-010  0.766420E-010  0.250952E-007  0.614286E-005  0.489075     
  0.904164       0.990149       0.658995       0.683723E-001  0.983484       0.974330       0.166101E-005  0.144923E-005  0.154126E-005  0.124063E-005
  0.110567E-005  0.143650E-005  0.295390E-003  0.653711       0.967278       0.995324       0.764467       0.138688       0.993274       0.992712     
  0.235066E-007  0.756295E-009  0.855991E-009  0.189663E-012  0.195471E-011  0.478140E-008  0.139433E-006  0.362975       0.865205       0.985913     
  0.655594       0.247822E-001  0.973861       0.957642     
 
  0.122070E-006  0.584722E-007  0.472661E-007  0.199792E-008  0.489077E-008  0.303048E-005  0.296070E-003  0.649885       0.944793       0.993813     
  0.788175       0.148852       0.990220       0.985939       0.643182E-007  0.230705E-007  0.217279E-007  0.292614E-009  0.881069E-009  0.406985E-006
  0.555212E-004  0.574901       0.924977       0.992479       0.711211       0.107661       0.987505       0.980613       0.114734E-006  0.582591E-007
  0.613395E-007  0.188890E-008  0.434515E-008  0.397714E-006  0.938126E-004  0.594008       0.953335       0.993821       0.702460       0.110250     
  0.991371       0.990457       0.341217E-007  0.689133E-008  0.670601E-008  0.170615E-010  0.763737E-010  0.160408E-007  0.298238E-005  0.462808     
  0.891165       0.989062       0.657228       0.582559E-001  0.981191       0.969715       0.165967E-005  0.144829E-005  0.154036E-005  0.123990E-005
  0.110510E-005  0.927316E-006  0.177465E-003  0.633982       0.963684       0.995085       0.763839       0.124647       0.992666       0.991537     
  0.233336E-007  0.751458E-009  0.850834E-009  0.188579E-012  0.194412E-011  0.474476E-008  0.619832E-007  0.335285       0.848737       0.984231     
  0.653964       0.197815E-001  0.970750       0.951939     
 
  0.121836E-006  0.583758E-007  0.471982E-007  0.199485E-008  0.488433E-008  0.156517E-005  0.165334E-003  0.627302       0.936726       0.993373     
  0.787150       0.133366       0.988953       0.983348       0.641716E-007  0.230250E-007  0.216893E-007  0.292083E-009  0.879644E-009  0.194438E-006
  0.289341E-004  0.550646       0.915805       0.991934       0.709529       0.945968E-001  0.986002       0.977605       0.114603E-006  0.582071E-007
  0.612913E-007  0.188736E-008  0.434216E-008  0.200285E-006  0.519367E-004  0.572272       0.948197       0.993518       0.701386       0.975154E-001
  0.990514       0.988760       0.339148E-007  0.685506E-008  0.667287E-008  0.169805E-010  0.760314E-010  0.160408E-007  0.143421E-005  0.436177     
  0.876420       0.987689       0.655398       0.492247E-001  0.978570       0.964536       0.165802E-005  0.144711E-005  0.153921E-005  0.123899E-005
  0.110438E-005  0.925935E-006  0.104942E-003  0.613659       0.959442       0.994804       0.763203       0.111552       0.991985       0.990147     
  0.231259E-007  0.745615E-009  0.844593E-009  0.187267E-012  0.193129E-011  0.470354E-008  0.274254E-007  0.308219       0.830611       0.982204     
  0.652218       0.156347E-001  0.967294       0.945781     
 
  0.121546E-006  0.582554E-007  0.471113E-007  0.199105E-008  0.487612E-008  0.787525E-006  0.904799E-004  0.603787       0.927415       0.992826     
  0.786059       0.118788       0.987497       0.980367       0.639960E-007  0.229705E-007  0.216424E-007  0.291450E-009  0.877927E-009  0.922750E-007
  0.149205E-004  0.525763       0.905642       0.991286       0.707838       0.825594E-001  0.984339       0.974288       0.114448E-006  0.581439E-007
  0.612314E-007  0.188549E-008  0.433843E-008  0.151332E-006  0.283662E-004  0.549969       0.942399       0.993165       0.700321       0.857520E-001
  0.989556       0.986826       0.336581E-007  0.680974E-008  0.663132E-008  0.168793E-010  0.756029E-010  0.159697E-007  0.684551E-006  0.409356     
  0.859924       0.985975       0.653484       0.412463E-001  0.975603       0.958795       0.165602E-005  0.144566E-005  0.153779E-005  0.123787E-005
  0.110347E-005  0.924472E-006  0.611965E-004  0.592836       0.954553       0.994477       0.762558       0.994123E-001  0.991228       0.988552     
  0.228790E-007  0.738628E-009  0.837120E-009  0.185694E-012  0.191591E-011  0.465694E-008  0.121845E-007  0.281952       0.810820       0.979776     
  0.650331       0.122377E-001  0.963473       0.939152     
 
  0.121182E-006  0.581032E-007  0.469992E-007  0.198626E-008  0.486556E-008  0.387569E-006  0.483575E-004  0.579382       0.916674       0.992137     
  0.784888       0.105147       0.985815       0.976899       0.637848E-007  0.229048E-007  0.215853E-007  0.290690E-009  0.875839E-009  0.434051E-007
  0.760555E-005  0.500348       0.894390       0.990513       0.706128       0.715497E-001  0.982490       0.970648       0.114263E-006  0.580672E-007
  0.611577E-007  0.188326E-008  0.433385E-008  0.151332E-006  0.152986E-004  0.527187       0.935895       0.992753       0.699262       0.749580E-001
  0.988494       0.984649       0.333411E-007  0.675343E-008  0.657957E-008  0.167534E-010  0.750691E-010  0.157978E-007  0.325436E-006  0.382532     
  0.841610       0.983839       0.651452       0.342764E-001  0.972261       0.952490       0.165366E-005  0.144391E-005  0.153606E-005  0.123653E-005
  0.110237E-005  0.922899E-006  0.352739E-004  0.571643       0.949044       0.994101       0.761904       0.882343E-001  0.990393       0.986767     
  0.225860E-007  0.730293E-009  0.828193E-009  0.183813E-012  0.189753E-011  0.460404E-008  0.550675E-008  0.256635       0.789264       0.976866     
  0.648266       0.948864E-002  0.959282       0.932025     
 
  0.120724E-006  0.579110E-007  0.468560E-007  0.198024E-008  0.485214E-008  0.187837E-006  0.255676E-004  0.554141       0.904471       0.991270     
  0.783621       0.924603E-001  0.983897       0.972964       0.635286E-007  0.228247E-007  0.215152E-007  0.289767E-009  0.873277E-009  0.377212E-007
  0.383150E-005  0.474508       0.881857       0.989577       0.704379       0.615572E-001  0.980425       0.966639       0.114042E-006  0.579740E-007
  0.610673E-007  0.188057E-008  0.432820E-008  0.151076E-006  0.815540E-005  0.504008       0.928609       0.992271       0.698208       0.651213E-001
  0.987313       0.982197       0.329538E-007  0.668426E-008  0.651587E-008  0.165987E-010  0.744116E-010  0.156088E-007  0.153840E-006  0.355889     
  0.821445       0.981197       0.649266       0.282545E-001  0.968520       0.945664       0.165087E-005  0.144182E-005  0.153399E-005  0.123494E-005
  0.110106E-005  0.921181E-006  0.201471E-004  0.550219       0.942953       0.993667       0.761240       0.780103E-001  0.989479       0.984785     
  0.222428E-007  0.720486E-009  0.817675E-009  0.181595E-012  0.187584E-011  0.454450E-008  0.256886E-008  0.232430       0.765958       0.973417     
  0.645994       0.729067E-002  0.954745       0.924458     
 
  0.120148E-006  0.576685E-007  0.466736E-007  0.197266E-008  0.483506E-008  0.957595E-007  0.133355E-004  0.528127       0.890677       0.990178     
  0.782239       0.807420E-001  0.981706       0.968532       0.632188E-007  0.227272E-007  0.214295E-007  0.288651E-009  0.870153E-009  0.377212E-007
  0.190624E-005  0.448361       0.867958       0.988446       0.702573       0.525602E-001  0.978114       0.962222       0.113777E-006  0.578606E-007
  0.609564E-007  0.187729E-008  0.432125E-008  0.150612E-006  0.430279E-005  0.480523       0.920471       0.991701       0.697159       0.562191E-001
  0.985995       0.979453       0.324900E-007  0.660103E-008  0.643909E-008  0.164123E-010  0.736187E-010  0.154003E-007  0.720608E-007  0.329607     
  0.799472       0.977989       0.646901       0.231035E-001  0.964375       0.938383       0.164761E-005  0.143937E-005  0.153155E-005  0.123307E-005
  0.109950E-005  0.919334E-006  0.114302E-004  0.528689       0.936324       0.993170       0.760564       0.687169E-001  0.988485       0.982603     
  0.218479E-007  0.709154E-009  0.805506E-009  0.179028E-012  0.185071E-011  0.447834E-008  0.123131E-008  0.209487       0.741086       0.969390     
  0.643501       0.555456E-002  0.949882       0.916527     
 
  0.119416E-006  0.573588E-007  0.464393E-007  0.196303E-008  0.481311E-008  0.957595E-007  0.684815E-005  0.501387       0.874983       0.988782     
  0.780704       0.699930E-001  0.979182       0.963523       0.628424E-007  0.226085E-007  0.213246E-007  0.287295E-009  0.866335E-009  0.374367E-007
  0.937384E-006  0.422011       0.852578       0.987071       0.700690       0.445254E-001  0.975528       0.957342       0.113462E-006  0.577246E-007
  0.608227E-007  0.187336E-008  0.431283E-008  0.150120E-006  0.224686E-005  0.456836       0.911468       0.991033       0.696113       0.482210E-001
  0.984528       0.976439       0.319426E-007  0.650239E-008  0.634795E-008  0.161909E-010  0.726766E-010  0.151668E-007  0.336802E-007  0.303837     
  0.775706       0.974140       0.644327       0.187387E-001  0.959825       0.930641       0.164387E-005  0.143652E-005  0.152872E-005  0.123090E-005
  0.109768E-005  0.917405E-006  0.645925E-005  0.507176       0.929192       0.992606       0.759875       0.603196E-001  0.987413       0.980253     
  0.213983E-007  0.696197E-009  0.791572E-009  0.176088E-012  0.182189E-011  0.440479E-008  0.553855E-009  0.187920       0.714757       0.964730     
  0.640766       0.419951E-002  0.944693       0.908239     
 
  0.118491E-006  0.569660E-007  0.461408E-007  0.195084E-008  0.478517E-008  0.956654E-007  0.345228E-005  0.473997       0.857209       0.987003     
  0.778983       0.602064E-001  0.976278       0.957883       0.623676E-007  0.224581E-007  0.211913E-007  0.285574E-009  0.861475E-009  0.370439E-007
  0.456020E-006  0.395513       0.835254       0.985330       0.698680       0.374094E-001  0.972581       0.951864       0.113089E-006  0.575620E-007
  0.606623E-007  0.186866E-008  0.430271E-008  0.149579E-006  0.116155E-005  0.433054       0.901539       0.990249       0.695062       0.410886E-001
  0.982895       0.973150       0.313017E-007  0.638640E-008  0.624063E-008  0.159301E-010  0.715656E-010  0.149026E-007  0.158653E-007  0.278709     
  0.750105       0.969548       0.641500       0.150762E-001  0.954872       0.922409       0.163966E-005  0.143330E-005  0.152550E-005  0.122844E-005
  0.109562E-005  0.915350E-006  0.364581E-005  0.485814       0.921628       0.991978       0.759173       0.527797E-001  0.986267       0.977780     
  0.208903E-007  0.681497E-009  0.775739E-009  0.172743E-012  0.178906E-011  0.432272E-008  0.242168E-009  0.167811       0.687044       0.959369     
  0.637763       0.315393E-002  0.939171       0.899566     
 
  0.117347E-006  0.564782E-007  0.457689E-007  0.193574E-008  0.475040E-008  0.943184E-007  0.170913E-005  0.446078       0.837359       0.984776     
  0.777046       0.513669E-001  0.972978       0.951634       0.617543E-007  0.222629E-007  0.210177E-007  0.283336E-009  0.855129E-009  0.366066E-007
  0.218271E-006  0.368913       0.815478       0.983065       0.696477       0.311612E-001  0.969161       0.945699       0.112639E-006  0.573639E-007
  0.604662E-007  0.186292E-008  0.429029E-008  0.148971E-006  0.596042E-006  0.409260       0.890516       0.989311       0.693977       0.347757E-001
  0.981060       0.969507       0.305612E-007  0.625185E-008  0.611593E-008  0.156269E-010  0.702727E-010  0.146070E-007  0.759995E-008  0.254366     
  0.722722       0.964131       0.638383       0.120336E-001  0.949538       0.913732       0.163500E-005  0.142972E-005  0.152192E-005  0.122572E-005
  0.109333E-005  0.913132E-006  0.206135E-005  0.464753       0.913730       0.991287       0.758459       0.460548E-001  0.985057       0.975214     
  0.203231E-007  0.665020E-009  0.757962E-009  0.168982E-012  0.175211E-011  0.423218E-008  0.161389E-009  0.149224       0.658197       0.953259     
  0.634477       0.235593E-002  0.933339       0.890540     
 
  0.115972E-006  0.558910E-007  0.453201E-007  0.191755E-008  0.470841E-008  0.929092E-007  0.831886E-006  0.417807       0.815630       0.982071     
  0.774881       0.434489E-001  0.969297       0.944899       0.609764E-007  0.220143E-007  0.207961E-007  0.280481E-009  0.847009E-009  0.361112E-007
  0.102750E-006  0.342330       0.793060       0.980161       0.694033       0.257254E-001  0.965222       0.938838       0.112087E-006  0.571191E-007
  0.602234E-007  0.185581E-008  0.427488E-008  0.148283E-006  0.304622E-006  0.385535       0.878227       0.988170       0.692827       0.292306E-001
  0.978997       0.965444       0.297215E-007  0.609862E-008  0.597369E-008  0.152808E-010  0.687947E-010  0.142816E-007  0.372841E-008  0.230965     
  0.693802       0.957843       0.634956       0.953098E-002  0.943847       0.904692       0.162983E-005  0.142574E-005  0.151794E-005  0.122269E-005
  0.109077E-005  0.910736E-006  0.115589E-005  0.443743       0.905457       0.990527       0.757725       0.399898E-001  0.983772       0.972510     
  0.196631E-007  0.645762E-009  0.737147E-009  0.164570E-012  0.170872E-011  0.412852E-008  0.157726E-009  0.131162       0.626737       0.945977     
  0.630686       0.171920E-002  0.926860       0.880670     
 
  0.114370E-006  0.552043E-007  0.447942E-007  0.189626E-008  0.465918E-008  0.914505E-007  0.396418E-006  0.389384       0.792186       0.978873     
  0.772479       0.364155E-001  0.965246       0.937824       0.600052E-007  0.217027E-007  0.205177E-007  0.276896E-009  0.836790E-009  0.355339E-007
  0.479430E-007  0.315889       0.767912       0.976480       0.691290       0.210419E-001  0.960738       0.931242       0.111418E-006  0.568206E-007
  0.599270E-007  0.184714E-008  0.425605E-008  0.147507E-006  0.155805E-006  0.361987       0.864611       0.986792       0.691590       0.243983E-001
  0.976702       0.960977       0.287810E-007  0.592622E-008  0.581338E-008  0.148905E-010  0.671250E-010  0.139252E-007  0.179357E-008  0.208626     
  0.663521       0.950614       0.631190       0.749292E-002  0.937803       0.895310       0.162390E-005  0.142116E-005  0.151334E-005  0.121919E-005
  0.108782E-005  0.908182E-006  0.625153E-006  0.422059       0.896486       0.989662       0.756940       0.343565E-001  0.982357       0.969560     
  0.189045E-007  0.623515E-009  0.713052E-009  0.159455E-012  0.165832E-011  0.400910E-008  0.153508E-009  0.114086       0.592866       0.937344     
  0.626342       0.123166E-002  0.919806       0.870023     
 
  0.112533E-006  0.544153E-007  0.441889E-007  0.187179E-008  0.460246E-008  0.899100E-007  0.185160E-006  0.360996       0.767012       0.975154     
  0.769829       0.302309E-001  0.960828       0.930400       0.587966E-007  0.213135E-007  0.201692E-007  0.272406E-009  0.823971E-009  0.348560E-007
  0.222916E-007  0.289683       0.739773       0.971815       0.688162       0.170461E-001  0.955674       0.922844       0.110626E-006  0.564653E-007
  0.595735E-007  0.183681E-008  0.423356E-008  0.146630E-006  0.798406E-007  0.338754       0.849737       0.985159       0.690258       0.202230E-001
  0.974178       0.956160       0.276830E-007  0.572398E-008  0.562494E-008  0.144310E-010  0.651563E-010  0.135130E-007  0.767912E-009  0.186545     
  0.630435       0.941920       0.626836       0.578764E-002  0.931096       0.885096       0.161752E-005  0.141623E-005  0.150840E-005  0.121542E-005
  0.108465E-005  0.905498E-006  0.616742E-006  0.401180       0.887364       0.988740       0.756157       0.294919E-001  0.980902       0.966572     
  0.181370E-007  0.600890E-009  0.688495E-009  0.154231E-012  0.160677E-011  0.388801E-008  0.149220E-009  0.995847E-001  0.560632       0.928318     
  0.621917       0.895337E-003  0.912950       0.859851     
 
  0.110353E-006  0.534761E-007  0.434670E-007  0.184258E-008  0.453467E-008  0.881662E-007  0.853035E-007  0.332669       0.739473       0.970660     
  0.766810       0.248479E-001  0.955922       0.922352       0.573117E-007  0.208333E-007  0.197385E-007  0.266856E-009  0.808090E-009  0.340701E-007
  0.104532E-007  0.263840       0.708569       0.965955       0.684559       0.136716E-001  0.950004       0.913663       0.109706E-006  0.560511E-007
  0.591610E-007  0.182476E-008  0.420728E-008  0.145642E-006  0.401913E-007  0.315996       0.833741       0.983257       0.688827       0.166487E-001
  0.971435       0.951032       0.264080E-007  0.548784E-008  0.540439E-008  0.138921E-010  0.628434E-010  0.130368E-007  0.482292E-009  0.165076     
  0.594624       0.931457       0.621780       0.439985E-002  0.923703       0.874022       0.161111E-005  0.141127E-005  0.150342E-005  0.121163E-005
  0.108144E-005  0.902821E-006  0.615120E-006  0.381827       0.878583       0.987818       0.755405       0.254337E-001  0.979482       0.963656     
  0.173615E-007  0.577914E-009  0.663503E-009  0.148905E-012  0.155412E-011  0.376496E-008  0.144837E-009  0.869817E-001  0.529501       0.918882     
  0.617375       0.654949E-003  0.906176       0.849953     
 
  0.107431E-006  0.522116E-007  0.424927E-007  0.180313E-008  0.444290E-008  0.859884E-007  0.386321E-007  0.303926       0.706920       0.964485     
  0.762988       0.201904E-001  0.950120       0.913003       0.555239E-007  0.202526E-007  0.192166E-007  0.260129E-009  0.788792E-009  0.331703E-007
  0.485505E-008  0.238523       0.674463       0.958711       0.680399       0.108525E-001  0.943717       0.903758       0.108660E-006  0.555782E-007
  0.586894E-007  0.181097E-008  0.417718E-008  0.144539E-006  0.196335E-007  0.293875       0.816829       0.981085       0.687299       0.136174E-001
  0.968489       0.945608       0.250647E-007  0.523753E-008  0.517002E-008  0.133183E-010  0.603749E-010  0.125390E-007  0.457202E-009  0.145749     
  0.559139       0.919982       0.616374       0.335221E-002  0.916184       0.862957       0.160445E-005  0.140611E-005  0.149824E-005  0.120768E-005
  0.107811E-005  0.900078E-006  0.613474E-006  0.363243       0.869816       0.986863       0.754653       0.219186E-001  0.978047       0.960731     
  0.165851E-007  0.554792E-009  0.638298E-009  0.143524E-012  0.150080E-011  0.364100E-008  0.140386E-009  0.759705E-001  0.499547       0.909093     
  0.612727       0.480982E-003  0.899456       0.840263     
 
  0.103412E-006  0.504626E-007  0.411415E-007  0.174840E-008  0.431516E-008  0.832010E-007  0.174418E-007  0.274708       0.668009       0.955704     
  0.757916       0.162225E-001  0.943158       0.902080       0.533871E-007  0.195551E-007  0.185883E-007  0.252024E-009  0.765479E-009  0.321287E-007
  0.211586E-008  0.213849       0.637334       0.949779       0.675545       0.852351E-002  0.936753       0.893053       0.107462E-006  0.550357E-007
  0.581477E-007  0.179512E-008  0.414255E-008  0.143320E-006  0.109306E-007  0.272196       0.798883       0.978591       0.685643       0.110347E-001
  0.965306       0.939828       0.236492E-007  0.497204E-008  0.492076E-008  0.127064E-010  0.577371E-010  0.120104E-007  0.439169E-009  0.128142     
  0.523556       0.907336       0.610525       0.254856E-002  0.908474       0.851713       0.159761E-005  0.140080E-005  0.149290E-005  0.120361E-005
  0.107468E-005  0.897285E-006  0.611786E-006  0.345511       0.861126       0.985883       0.753905       0.188914E-001  0.976610       0.957816     
  0.157890E-007  0.530949E-009  0.612247E-009  0.137951E-012  0.144547E-011  0.351292E-008  0.135753E-009  0.660525E-001  0.469930       0.898670     
  0.607828       0.350902E-003  0.892575       0.830461     
 
  0.982635E-007  0.482084E-007  0.393950E-007  0.167758E-008  0.414931E-008  0.798017E-007  0.761037E-008  0.245480       0.623773       0.943982     
  0.751424       0.128953E-001  0.935108       0.889844       0.508194E-007  0.187120E-007  0.178269E-007  0.242187E-009  0.737108E-009  0.308972E-007
  0.100724E-008  0.189860       0.596758       0.938629       0.669763       0.662107E-002  0.928980       0.881330       0.106062E-006  0.543993E-007
  0.575117E-007  0.177650E-008  0.410183E-008  0.141932E-006  0.108276E-007  0.250422       0.779320       0.975655       0.683793       0.879590E-002
  0.961767       0.933541       0.221693E-007  0.469254E-008  0.465757E-008  0.120588E-010  0.549376E-010  0.114522E-007  0.420038E-009  0.112021     
  0.487993       0.893456       0.604184       0.192696E-002  0.900529       0.840287       0.159063E-005  0.139538E-005  0.148745E-005  0.119944E-005
  0.107116E-005  0.894449E-006  0.610050E-006  0.328709       0.852560       0.984883       0.753163       0.162996E-001  0.975183       0.954926     
  0.148311E-007  0.502046E-009  0.580583E-009  0.131161E-012  0.137790E-011  0.335724E-008  0.130087E-009  0.557731E-001  0.435787       0.885547     
  0.601729       0.241140E-003  0.884383       0.818953     
 
  0.917134E-007  0.453187E-007  0.371483E-007  0.158629E-008  0.393472E-008  0.755786E-007  0.297908E-008  0.216215       0.573670       0.928270     
  0.742979       0.101285E-001  0.925791       0.876037       0.477787E-007  0.177068E-007  0.169163E-007  0.230394E-009  0.703000E-009  0.294565E-007
  0.700751E-009  0.166691       0.552897       0.924796       0.662837       0.508520E-002  0.920336       0.868510       0.104514E-006  0.536942E-007
  0.568061E-007  0.175581E-008  0.405659E-008  0.140407E-006  0.107157E-007  0.229795       0.759190       0.972382       0.681823       0.697767E-002
  0.958075       0.927024       0.206537E-007  0.440417E-008  0.438517E-008  0.113865E-010  0.520237E-010  0.108729E-007  0.400077E-009  0.974168E-001
  0.452887       0.878465       0.597393       0.145028E-002  0.892404       0.828773       0.158238E-005  0.138896E-005  0.148099E-005  0.119451E-005
  0.106700E-005  0.891084E-006  0.607961E-006  0.310410       0.842781       0.983699       0.752314       0.137661E-001  0.973545       0.951614     
  0.139284E-007  0.474603E-009  0.550409E-009  0.124669E-012  0.131311E-011  0.320845E-008  0.124635E-009  0.474598E-001  0.405027       0.872535     
  0.595741       0.169636E-003  0.876719       0.808318     
 
  0.833077E-007  0.415737E-007  0.342238E-007  0.146706E-008  0.365320E-008  0.701860E-007  0.139920E-008  0.186786       0.516682       0.906649     
  0.731605       0.785797E-002  0.914836       0.860138       0.442792E-007  0.165407E-007  0.158562E-007  0.216626E-009  0.663043E-009  0.278064E-007
  0.665335E-009  0.144557       0.506341       0.907954       0.654604       0.386044E-002  0.910835       0.854634       0.102877E-006  0.529460E-007
  0.560565E-007  0.173381E-008  0.400845E-008  0.138803E-006  0.105986E-007  0.210831       0.739206       0.968880       0.679784       0.554354E-002
  0.954343       0.920546       0.191310E-007  0.411213E-008  0.410837E-008  0.107013E-010  0.490446E-010  0.102818E-007  0.379574E-009  0.843282E-001
  0.418683       0.862515       0.590205       0.108760E-002  0.884153       0.817236       0.157361E-005  0.138215E-005  0.147413E-005  0.118927E-005
  0.106258E-005  0.887572E-006  0.605755E-006  0.292284       0.832889       0.982447       0.751439       0.115284E-001  0.971829       0.948215     
  0.132048E-007  0.452474E-009  0.526003E-009  0.119405E-012  0.126043E-011  0.308743E-008  0.120177E-009  0.415766E-001  0.380922       0.861608     
  0.590737       0.127592E-003  0.870497       0.799769     
 
  0.731451E-007  0.369888E-007  0.306233E-007  0.131958E-008  0.330314E-008  0.636426E-007  0.125859E-008  0.157676       0.454508       0.878014     
  0.716666       0.601904E-002  0.902279       0.842299       0.403516E-007  0.152195E-007  0.146501E-007  0.200907E-009  0.617251E-009  0.259364E-007
  0.624556E-009  0.123655       0.457718       0.887722       0.644866       0.289617E-002  0.900472       0.839740       0.101109E-006  0.521358E-007
  0.552440E-007  0.170994E-008  0.395617E-008  0.137074E-006  0.104721E-007  0.192862       0.718751       0.965050       0.677609       0.437720E-002
  0.950469       0.913921       0.175382E-007  0.380395E-008  0.381519E-008  0.997319E-011  0.458680E-010  0.965266E-008  0.357583E-009  0.720871E-001
  0.383918       0.844743       0.582219       0.800279E-003  0.875341       0.805074       0.156632E-005  0.137647E-005  0.146842E-005  0.118491E-005
  0.105889E-005  0.884654E-006  0.603909E-006  0.277842       0.824815       0.981397       0.750716       0.992320E-002  0.970402       0.945461     
  0.123628E-007  0.426572E-009  0.497352E-009  0.113211E-012  0.119827E-011  0.294446E-008  0.114890E-009  0.354638E-001  0.353409       0.848286     
  0.584650       0.909200E-004  0.863093       0.789682     
 
  0.616554E-007  0.317216E-007  0.264580E-007  0.114793E-008  0.289302E-008  0.560460E-007  0.111940E-008  0.129551       0.389101       0.841585     
  0.697627       0.454894E-002  0.888084       0.822517       0.360785E-007  0.137660E-007  0.133168E-007  0.183456E-009  0.566190E-009  0.238699E-007
  0.578719E-009  0.104216       0.408199       0.863864       0.633473       0.214703E-002  0.889297       0.824019       0.992147E-007  0.512656E-007
  0.543702E-007  0.168425E-008  0.389984E-008  0.135219E-006  0.103359E-007  0.175919       0.697908       0.960889       0.675299       0.343598E-002
  0.946455       0.907151       0.157716E-007  0.345836E-008  0.348498E-008  0.914981E-011  0.422615E-010  0.893881E-008  0.332476E-009  0.601402E-001
  0.346532       0.823481       0.572689       0.566762E-003  0.865381       0.791524       0.155951E-005  0.137115E-005  0.146306E-005  0.118082E-005
  0.105544E-005  0.881932E-006  0.602168E-006  0.264936       0.817463       0.980409       0.750045       0.861731E-002  0.969076       0.942947     
  0.113945E-007  0.396565E-009  0.464061E-009  0.105996E-012  0.112562E-011  0.277738E-008  0.108684E-009  0.294022E-001  0.322921       0.832075     
  0.577288       0.614281E-004  0.854559       0.778154     
 
  0.500017E-007  0.262743E-007  0.221140E-007  0.967550E-009  0.245870E-008  0.480240E-007  0.969713E-009  0.103685       0.325271       0.798878     
  0.675054       0.338949E-002  0.872755       0.801696       0.315744E-007  0.122137E-007  0.118848E-007  0.164619E-009  0.510788E-009  0.216389E-007
  0.528409E-009  0.864298E-001  0.358672       0.836197       0.620284       0.157265E-002  0.877302       0.807482       0.971997E-007  0.503372E-007
  0.534369E-007  0.165679E-008  0.383955E-008  0.133245E-006  0.101906E-007  0.160025       0.676802       0.956396       0.672851       0.268217E-002
  0.942305       0.900266       0.141026E-007  0.312807E-008  0.316770E-008  0.835480E-011  0.387636E-010  0.824571E-008  0.307934E-009  0.502921E-001
  0.312380       0.801602       0.562891       0.407750E-003  0.855751       0.778586       0.155139E-005  0.136480E-005  0.145664E-005  0.117591E-005
  0.105130E-005  0.878685E-006  0.600062E-006  0.250253       0.808982       0.979219       0.749248       0.727236E-002  0.967508       0.940032     
  0.107717E-007  0.377118E-009  0.442434E-009  0.101294E-012  0.107816E-011  0.266809E-008  0.104612E-009  0.259331E-001  0.303782       0.821092     
  0.572301       0.473813E-004  0.848941       0.770612     
 
  0.392392E-007  0.211284E-007  0.179702E-007  0.793933E-009  0.203691E-008  0.402089E-007  0.821426E-009  0.810484E-001  0.266448       0.752144     
  0.649912       0.248813E-002  0.856679       0.780322       0.269971E-007  0.106120E-007  0.103975E-007  0.144939E-009  0.452552E-009  0.192989E-007
  0.474788E-009  0.704600E-001  0.310375       0.804755       0.605241       0.113793E-002  0.864531       0.790189       0.950691E-007  0.493525E-007
  0.524458E-007  0.162759E-008  0.377539E-008  0.131155E-006  0.100366E-007  0.145184       0.655475       0.951562       0.670262       0.208288E-002
  0.938022       0.893290       0.125921E-007  0.282568E-008  0.287574E-008  0.761982E-011  0.355141E-010  0.759950E-008  0.284918E-009  0.423707E-001
  0.281968       0.779987       0.553189       0.300242E-003  0.846664       0.766489       0.154282E-005  0.135811E-005  0.144987E-005  0.117072E-005
  0.104690E-005  0.875260E-006  0.597823E-006  0.235434       0.800401       0.977956       0.748420       0.605772E-002  0.965863       0.937065     
  0.996222E-008  0.351661E-009  0.414045E-009  0.951046E-013  0.101552E-011  0.252348E-008  0.992110E-010  0.218325E-001  0.279250       0.806075     
  0.565462       0.332586E-004  0.841333       0.760447     
 
  0.297859E-007  0.164898E-007  0.141931E-007  0.634049E-009  0.164451E-008  0.328871E-007  0.680138E-009  0.618471E-001  0.213852       0.702305     
  0.622505       0.179829E-002  0.839944       0.758473       0.224402E-007  0.898787E-008  0.887794E-008  0.124691E-009  0.392216E-009  0.168726E-007
  0.418426E-009  0.562256E-001  0.263739       0.769072       0.588023       0.810047E-003  0.850949       0.772107       0.928258E-007  0.483119E-007
  0.513969E-007  0.159665E-008  0.370734E-008  0.128942E-006  0.987335E-008  0.131386       0.633884       0.946371       0.667525       0.160983E-002
  0.933606       0.886231       0.111681E-007  0.253718E-008  0.259577E-008  0.691174E-011  0.323687E-010  0.697114E-008  0.262428E-009  0.356007E-001
  0.253565       0.757700       0.543135       0.221713E-003  0.837593       0.754507       0.153675E-005  0.135334E-005  0.144505E-005  0.116703E-005
  0.104377E-005  0.872820E-006  0.596237E-006  0.225235       0.794433       0.977055       0.747836       0.530242E-002  0.964688       0.934983     
  0.915175E-008  0.325978E-009  0.385285E-009  0.888123E-013  0.951667E-012  0.237584E-008  0.936853E-010  0.182371E-001  0.255489       0.790095     
  0.558180       0.231085E-004  0.833578       0.750150     
 
  0.218051E-007  0.124561E-007  0.108669E-007  0.491599E-009  0.129085E-008  0.262245E-007  0.549421E-009  0.459870E-001  0.167986       0.649888     
  0.592922       0.127889E-002  0.822722       0.736340       0.179420E-007  0.735097E-008  0.733206E-008  0.103914E-009  0.329789E-009  0.143502E-007
  0.359043E-009  0.435326E-001  0.218608       0.727916       0.567905       0.562465E-003  0.836205       0.752774       0.901711E-007  0.470756E-007
  0.501478E-007  0.155976E-008  0.362607E-008  0.126304E-006  0.967770E-008  0.117244       0.609446       0.940074       0.664268       0.120353E-002
  0.928539       0.878273       0.960267E-008  0.221559E-008  0.228187E-008  0.611361E-011  0.288039E-010  0.625510E-008  0.236673E-009  0.288709E-001
  0.222598       0.730531       0.530794       0.155506E-003  0.826921       0.740522       0.152987E-005  0.134793E-005  0.143959E-005  0.116283E-005
  0.104023E-005  0.870049E-006  0.594442E-006  0.214059       0.787750       0.976030       0.747176       0.454843E-002  0.963349       0.932635     
  0.863552E-008  0.309492E-009  0.366766E-009  0.847487E-013  0.910301E-012  0.227991E-008  0.900862E-010  0.161425E-001  0.240517       0.779345     
  0.553258       0.180711E-004  0.828387       0.743283     
 
  0.152323E-007  0.902124E-008  0.799310E-008  0.366852E-009  0.977029E-009  0.202321E-007  0.429818E-009  0.331231E-001  0.128395       0.594408     
  0.560661       0.894207E-003  0.804822       0.713661       0.138205E-007  0.581438E-008  0.586556E-008  0.840109E-010  0.269396E-009  0.118868E-007
  0.300270E-009  0.329037E-001  0.177108       0.682608       0.545369       0.386375E-003  0.820694       0.732716       0.872704E-007  0.457212E-007
  0.487762E-007  0.151919E-008  0.353647E-008  0.123399E-006  0.946222E-008  0.103987       0.584108       0.933016       0.660688       0.888838E-003
  0.923175       0.870033       0.801226E-008  0.188332E-008  0.195519E-008  0.527740E-011  0.250442E-010  0.549473E-008  0.209165E-009  0.227529E-001
  0.191347       0.699226       0.516434       0.105434E-003  0.815134       0.725212       0.152187E-005  0.134168E-005  0.143323E-005  0.115797E-005
  0.103611E-005  0.866837E-006  0.592371E-006  0.201387       0.780137       0.974838       0.746410       0.378029E-002  0.961776       0.929942     
  0.786653E-008  0.284724E-009  0.338859E-009  0.786073E-013  0.847562E-012  0.213414E-008  0.846045E-010  0.133297E-001  0.218685       0.762389     
  0.545474       0.123354E-004  0.820418       0.732780     
 
  0.100157E-007  0.618780E-008  0.558279E-008  0.260593E-009  0.705605E-009  0.149532E-007  0.322552E-009  0.229348E-001  0.946691E-001  0.535524     
  0.525203       0.614188E-003  0.785858       0.689955       0.103030E-007  0.446567E-008  0.456301E-008  0.661384E-010  0.214569E-009  0.962327E-008
  0.245642E-009  0.244058E-001  0.141016       0.634961       0.521141       0.264480E-003  0.804948       0.712590       0.845354E-007  0.444373E-007
  0.474760E-007  0.148063E-008  0.345128E-008  0.120637E-006  0.925782E-008  0.930206E-001  0.561148       0.926193       0.657264       0.672315E-003
  0.918184       0.862492       0.683423E-008  0.163283E-008  0.170711E-008  0.463778E-011  0.221492E-010  0.490440E-008  0.187696E-009  0.186090E-001
  0.168133       0.672830       0.504174       0.766674E-004  0.805470       0.712750       0.151694E-005  0.133780E-005  0.142930E-005  0.115496E-005
  0.103356E-005  0.864854E-006  0.591087E-006  0.193751       0.775489       0.974099       0.745937       0.336075E-002  0.960795       0.928293     
  0.743782E-008  0.270812E-009  0.323125E-009  0.751345E-013  0.811986E-012  0.205118E-008  0.814778E-010  0.118974E-001  0.206678       0.752388     
  0.540861       0.984374E-005  0.815769       0.726675     
 
  0.614794E-008  0.399010E-008  0.367674E-008  0.175039E-009  0.483169E-009  0.105277E-007  0.231034E-009  0.151831E-001  0.670812E-001  0.474307     
  0.486779       0.413210E-003  0.765940       0.665342       0.740244E-008  0.331810E-008  0.343955E-008  0.505300E-010  0.166090E-009  0.759088E-008
  0.196009E-009  0.176585E-001  0.109968       0.585302       0.495197       0.178542E-003  0.788730       0.692084       0.817597E-007  0.431312E-007
  0.461498E-007  0.144129E-008  0.336423E-008  0.117814E-006  0.904927E-008  0.830554E-001  0.538618       0.919103       0.653723       0.506837E-003
  0.913140       0.854982       0.583990E-008  0.141796E-008  0.149280E-008  0.408165E-011  0.196163E-010  0.438355E-008  0.168655E-009  0.153044E-001
  0.148220       0.647719       0.492353       0.564558E-004  0.796287       0.700973       0.150992E-005  0.133225E-005  0.142370E-005  0.115068E-005
  0.102991E-005  0.862027E-006  0.589251E-006  0.183215       0.768918       0.973044       0.745262       0.283393E-002  0.959389       0.925953     
  0.677796E-008  0.249240E-009  0.298638E-009  0.697137E-013  0.756304E-012  0.192089E-008  0.765563E-010  0.988038E-002  0.188465       0.736111     
  0.533320       0.682233E-005  0.808320       0.716925     
 
 )
