TRANSMISSION%TAU_TOTAL = (
  0.107435E-007  0.655748E-008  0.588780E-008  0.273781E-009  0.737667E-009  0.155204E-007  0.333203E-009  0.240009E-001  0.956929E-001  0.513734     
  0.473379       0.657047E-003  0.750297       0.660090       0.641387E-008  0.289944E-008  0.301782E-008  0.445401E-010  0.146852E-009  0.673893E-008
  0.174442E-009  0.151548E-001  0.942163E-001  0.526333       0.421774       0.154331E-003  0.736254       0.643995       0.689298E-007  0.367880E-007
  0.395737E-007  0.124311E-008  0.291420E-008  0.102607E-006  0.790133E-008  0.540342E-001  0.430139       0.821578       0.553371       0.199872E-003
  0.841289       0.778975       0.547784E-008  0.133138E-008  0.140280E-008  0.384138E-011  0.184652E-010  0.412611E-008  0.158744E-009  0.141979E-001
  0.135445       0.598375       0.430796       0.533250E-004  0.751595       0.660884       0.148928E-005  0.131297E-005  0.140279E-005  0.113386E-005
  0.101448E-005  0.848575E-006  0.579815E-006  0.199589       0.756872       0.946506       0.710180       0.391805E-002  0.941426       0.910265     
  0.607372E-008  0.224743E-009  0.270103E-009  0.632764E-013  0.688013E-012  0.175242E-008  0.699644E-010  0.831118E-002  0.164687       0.675066     
  0.466472       0.526884E-005  0.761446       0.673031     
 )
TRANSMISSION%TAU_LAYERS = (
   1.00000        1.00000        1.00000        1.00000        1.00000        1.00000        1.00000        1.00000        1.00000        1.00000     
   1.00000        1.00000        1.00000        1.00000        1.00000        1.00000        1.00000        1.00000        1.00000        1.00000     
   1.00000        1.00000        1.00000        1.00000        1.00000        1.00000        1.00000        1.00000        1.00000        1.00000     
   1.00000        1.00000        1.00000        1.00000        1.00000        1.00000        1.00000        1.00000        1.00000        1.00000     
   1.00000        1.00000        1.00000        1.00000        1.00000        1.00000        1.00000        1.00000        1.00000        1.00000     
   1.00000        1.00000        1.00000        1.00000        1.00000        1.00000        1.00000        1.00000        1.00000        1.00000     
   1.00000        1.00000        1.00000        1.00000        1.00000        1.00000        1.00000        1.00000        1.00000        1.00000     
   1.00000        1.00000        1.00000        1.00000        1.00000        1.00000        1.00000        1.00000        1.00000        1.00000     
   1.00000        1.00000        1.00000        1.00000     
 
  0.999569       0.993750       0.989838       0.999412       0.999349       0.998046       0.998525       0.999996        1.00000        1.00000     
  0.999997       0.999860        1.00000        1.00000       0.999624       0.994100       0.991201       0.999499       0.999466       0.998280     
  0.998759       0.999997        1.00000        1.00000       0.999998       0.999890        1.00000        1.00000       0.999543       0.994613     
  0.989929       0.999355       0.999252       0.998118       0.998451       0.999995        1.00000        1.00000       0.999997       0.999827     
   1.00000        1.00000       0.999656       0.994626       0.992306       0.999550       0.999533       0.998499       0.998911       0.999997     
   1.00000        1.00000       0.999998       0.999903        1.00000        1.00000       0.999662       0.995933       0.991271       0.999489     
  0.999375       0.998362       0.998688       0.999995        1.00000        1.00000       0.999997       0.999864        1.00000        1.00000     
  0.999535       0.994679       0.991367       0.999379       0.999320       0.998385       0.998627       0.999995        1.00000        1.00000     
  0.999997       0.999834        1.00000        1.00000     
 
  0.998691       0.988345       0.984551       0.998419       0.998361       0.997049       0.997367       0.999986       0.999999        1.00000     
  0.999992       0.999536        1.00000        1.00000       0.998976       0.989377       0.986604       0.998763       0.998762       0.997431     
  0.997824       0.999991        1.00000        1.00000       0.999995       0.999668        1.00000        1.00000       0.998968       0.990882     
  0.984553       0.998679       0.998515       0.997065       0.997509       0.999987       0.999999        1.00000       0.999993       0.999596     
   1.00000        1.00000       0.999305       0.991135       0.988242       0.999136       0.999131       0.997722       0.998235       0.999994     
   1.00000        1.00000       0.999996       0.999792        1.00000        1.00000       0.999365       0.993331       0.986152       0.999080     
  0.998894       0.997381       0.997875       0.999990       0.999999        1.00000       0.999995       0.999741        1.00000        1.00000     
  0.999147       0.991064       0.985968       0.998901       0.998803       0.997356       0.997739       0.999991        1.00000        1.00000     
  0.999994       0.999693        1.00000        1.00000     
 
  0.997094       0.981872       0.978215       0.997009       0.996816       0.995600       0.996339       0.999965       0.999998        1.00000     
  0.999979       0.998923        1.00000        1.00000       0.997834       0.983943       0.981919       0.997675       0.997631       0.996449     
  0.996898       0.999977       0.999999        1.00000       0.999986       0.999248        1.00000        1.00000       0.998008       0.986598     
  0.979875       0.997681       0.997450       0.996072       0.996611       0.999973       0.999998        1.00000       0.999986       0.999206     
   1.00000        1.00000       0.998476       0.986048       0.984613       0.998233       0.998305       0.997085       0.997331       0.999986     
  0.999999        1.00000       0.999992       0.999509        1.00000        1.00000       0.998582       0.989748       0.981177       0.998137     
  0.997862       0.996347       0.996883       0.999977       0.999998        1.00000       0.999988       0.999408        1.00000        1.00000     
  0.998061       0.985898       0.981631       0.997800       0.997668       0.996421       0.996825       0.999977       0.999999        1.00000     
  0.999987       0.999279        1.00000        1.00000     
 
  0.994736       0.974001       0.969392       0.995398       0.995119       0.993543       0.995545       0.999928       0.999995        1.00000     
  0.999942       0.998047        1.00000        1.00000       0.996024       0.977246       0.975198       0.996250       0.996058       0.994873     
  0.996007       0.999951       0.999997        1.00000       0.999964       0.998571        1.00000        1.00000       0.996178       0.980291     
  0.972516       0.996227       0.995842       0.994327       0.995769       0.999944       0.999996        1.00000       0.999967       0.998476     
   1.00000        1.00000       0.996863       0.979646       0.978874       0.996887       0.996791       0.995728       0.996418       0.999965     
  0.999998        1.00000       0.999978       0.998912        1.00000        1.00000       0.997563       0.986286       0.976165       0.997217     
  0.996826       0.995195       0.996280       0.999958       0.999997        1.00000       0.999974       0.998977        1.00000        1.00000     
  0.996961       0.981672       0.977714       0.996930       0.996728       0.995494       0.996285       0.999963       0.999998        1.00000     
  0.999977       0.998871        1.00000        1.00000     
 
  0.991708       0.964674       0.958097       0.993589       0.993514       0.991064       0.994900       0.999870       0.999987        1.00000     
  0.999852       0.996965       0.999999        1.00000       0.993397       0.968996       0.965341       0.994596       0.994355       0.992599     
  0.995300       0.999907       0.999992        1.00000       0.999910       0.997613        1.00000        1.00000       0.993861       0.973077     
  0.964023       0.994796       0.994489       0.992401       0.995252       0.999904       0.999991        1.00000       0.999921       0.997620     
   1.00000        1.00000       0.995064       0.973583       0.972324       0.995665       0.995488       0.994201       0.995799       0.999938     
  0.999996        1.00000       0.999950       0.998260        1.00000        1.00000       0.996381       0.982503       0.970834       0.996268     
  0.995795       0.993966       0.995769       0.999936       0.999995        1.00000       0.999954       0.998492        1.00000        1.00000     
  0.995190       0.975409       0.971657       0.995664       0.995343       0.994017       0.995622       0.999938       0.999996        1.00000     
  0.999957       0.998219        1.00000        1.00000     
 
  0.988234       0.953944       0.944165       0.991558       0.991819       0.988192       0.994131       0.999786       0.999972        1.00000     
  0.999662       0.995714       0.999999        1.00000       0.989897       0.958665       0.952040       0.992569       0.992727       0.989775     
  0.994655       0.999834       0.999981        1.00000       0.999773       0.996374       0.999999        1.00000       0.991310       0.965244     
  0.954843       0.993319       0.993266       0.990430       0.994787       0.999852       0.999983        1.00000       0.999832       0.996716     
  0.999999        1.00000       0.992672       0.966192       0.963476       0.994208       0.994049       0.992190       0.995218       0.999897     
  0.999991        1.00000       0.999895       0.997405        1.00000        1.00000       0.994391       0.976446       0.963030       0.994995     
  0.994593       0.992232       0.995323       0.999899       0.999990        1.00000       0.999908       0.997736        1.00000        1.00000     
  0.992405       0.966629       0.962398       0.994061       0.993882       0.991901       0.995105       0.999891       0.999991        1.00000     
  0.999893       0.997251        1.00000        1.00000     
 
  0.984584       0.941946       0.926671       0.989335       0.989736       0.984821       0.992944       0.999664       0.999947       0.999999     
  0.999311       0.994310       0.999999       0.999999       0.986174       0.947211       0.935871       0.990363       0.990827       0.986558     
  0.993703       0.999726       0.999960       0.999999       0.999500       0.994980       0.999999        1.00000       0.988378       0.956069     
  0.943671       0.991636       0.991888       0.988138       0.994188       0.999781       0.999971        1.00000       0.999667       0.995676     
  0.999999        1.00000       0.989199       0.956081       0.950255       0.992203       0.992467       0.989399       0.994590       0.999824     
  0.999980        1.00000       0.999764       0.996177       0.999999        1.00000       0.992023       0.969153       0.954494       0.993625     
  0.993496       0.990429       0.994906       0.999849       0.999982        1.00000       0.999815       0.996896       0.999999        1.00000     
  0.989887       0.958805       0.953595       0.992632       0.992718       0.990007       0.994658       0.999839       0.999983        1.00000     
  0.999788       0.996379       0.999999        1.00000     
 
  0.980879       0.928754       0.904454       0.986895       0.987095       0.980842       0.991124       0.999494       0.999908       0.999999     
  0.998722       0.992771       0.999998       0.999999       0.982554       0.935128       0.915984       0.988077       0.988478       0.982943     
  0.992231       0.999579       0.999927       0.999999       0.999060       0.993490       0.999998       0.999999       0.985183       0.945580     
  0.929748       0.989745       0.990186       0.985407       0.993287       0.999681       0.999950       0.999999       0.999379       0.994494     
  0.999999        1.00000       0.985323       0.944438       0.932574       0.989884       0.990421       0.985955       0.993540       0.999705     
  0.999956       0.999999       0.999486       0.994676       0.999999       0.999999       0.989698       0.961749       0.945683       0.992288     
  0.992416       0.988629       0.994424       0.999793       0.999972        1.00000       0.999671       0.996088       0.999999        1.00000     
  0.987076       0.949942       0.942894       0.991013       0.991373       0.987783       0.994069       0.999769       0.999970        1.00000     
  0.999620       0.995374       0.999999        1.00000     
 
  0.977039       0.914313       0.877162       0.984113       0.983860       0.976161       0.988565       0.999264       0.999851       0.999998     
  0.997804       0.991130       0.999997       0.999999       0.978782       0.921764       0.890963       0.985486       0.985540       0.978695     
  0.990072       0.999376       0.999878       0.999998       0.998366       0.991864       0.999997       0.999999       0.981782       0.933513     
  0.911341       0.987592       0.987936       0.982001       0.991845       0.999538       0.999918       0.999999       0.998878       0.993130     
  0.999998       0.999999       0.981820       0.933035       0.912446       0.987648       0.988075       0.982420       0.992048       0.999553     
  0.999921       0.999999       0.999073       0.993192       0.999998       0.999999       0.987079       0.953020       0.934836       0.990758     
  0.991097       0.986467       0.993736       0.999717       0.999957       0.999999       0.999439       0.995175       0.999999        1.00000     
  0.983638       0.938565       0.927421       0.988936       0.989441       0.984699       0.993042       0.999657       0.999947       0.999999     
  0.999296       0.994042       0.999998       0.999999     
 
  0.972888       0.898352       0.845460       0.980844       0.980043       0.970636       0.985248       0.998962       0.999775       0.999997     
  0.996462       0.989436       0.999996       0.999998       0.974708       0.906959       0.861058       0.982449       0.982006       0.973670     
  0.987162       0.999105       0.999809       0.999997       0.997315       0.990146       0.999996       0.999999       0.978114       0.919453     
  0.886529       0.985016       0.984947       0.977672       0.989579       0.999325       0.999868       0.999998       0.998004       0.991564     
  0.999997       0.999999       0.978083       0.920192       0.887599       0.985085       0.985169       0.978281       0.989920       0.999349     
  0.999870       0.999998       0.998441       0.991569       0.999997       0.999999       0.984258       0.942929       0.921418       0.989041     
  0.989446       0.983857       0.992723       0.999617       0.999936       0.999999       0.999077       0.994168       0.999999       0.999999     
  0.979871       0.925006       0.904468       0.986423       0.986660       0.980578       0.991176       0.999471       0.999905       0.999999     
  0.998642       0.992386       0.999998       0.999999     
 
  0.968256       0.880319       0.810252       0.976972       0.975642       0.964085       0.981188       0.998575       0.999676       0.999996     
  0.994585       0.987726       0.999994       0.999998       0.970141       0.890308       0.826841       0.978822       0.977861       0.967659     
  0.983469       0.998750       0.999715       0.999996       0.995793       0.988373       0.999995       0.999998       0.974345       0.904316     
  0.857866       0.982075       0.981466       0.972643       0.986610       0.999043       0.999799       0.999997       0.996668       0.989997     
  0.999996       0.999999       0.974004       0.905737       0.858079       0.982073       0.981683       0.973385       0.987065       0.999078     
  0.999800       0.999997       0.997505       0.989848       0.999996       0.999999       0.981164       0.930511       0.903383       0.986997     
  0.987210       0.980443       0.991097       0.999476       0.999905       0.999999       0.998479       0.993000       0.999998       0.999999     
  0.976194       0.911335       0.877781       0.983722       0.983486       0.976077       0.988689       0.999223       0.999844       0.999998     
  0.997633       0.990746       0.999997       0.999999     
 
  0.963033       0.859577       0.772069       0.972429       0.970587       0.956315       0.976377       0.998087       0.999552       0.999994     
  0.992070       0.985999       0.999992       0.999997       0.964933       0.871217       0.788897       0.974505       0.973052       0.960437     
  0.978968       0.998298       0.999595       0.999994       0.993685       0.986570       0.999993       0.999998       0.970382       0.887731     
  0.827244       0.978738       0.977606       0.966900       0.983088       0.998691       0.999714       0.999997       0.994843       0.988497     
  0.999995       0.999998       0.969392       0.889307       0.824143       0.978462       0.977581       0.967483       0.983415       0.998728     
  0.999707       0.999996       0.996159       0.988060       0.999995       0.999998       0.978142       0.916661       0.881807       0.984726     
  0.984515       0.976377       0.988840       0.999295       0.999865       0.999998       0.997586       0.991813       0.999997       0.999999     
  0.972066       0.896089       0.846832       0.980500       0.979752       0.970738       0.985485       0.998887       0.999759       0.999997     
  0.996123       0.989030       0.999995       0.999998     
 
  0.957077       0.835383       0.730807       0.967136       0.964686       0.947104       0.970762       0.997472       0.999399       0.999992     
  0.988833       0.984202       0.999989       0.999996       0.959001       0.848995       0.747636       0.969442       0.967461       0.951797     
  0.973629       0.997733       0.999446       0.999992       0.990885       0.984740       0.999991       0.999997       0.965946       0.868387     
  0.793716       0.974800       0.973149       0.960056       0.978879       0.998244       0.999608       0.999995       0.992449       0.986993     
  0.999993       0.999997       0.964038       0.870286       0.785919       0.974100       0.972767       0.960271       0.978893       0.998277     
  0.999585       0.999994       0.994259       0.986208       0.999993       0.999998       0.975243       0.902246       0.858784       0.982289     
  0.981571       0.971918       0.986198       0.999077       0.999818       0.999998       0.996418       0.990694       0.999996       0.999999     
  0.967237       0.878277       0.811339       0.976555       0.975307       0.964178       0.981425       0.998433       0.999642       0.999996     
  0.993921       0.987223       0.999993       0.999998     
 
  0.950034       0.806183       0.684900       0.960797       0.957459       0.935892       0.964076       0.996671       0.999204       0.999989     
  0.984695       0.982192       0.999985       0.999994       0.952262       0.822931       0.703205       0.963579       0.960889       0.941552     
  0.967415       0.997030       0.999263       0.999989       0.987306       0.982848       0.999988       0.999996       0.960871       0.845507     
  0.757014       0.970151       0.967918       0.951899       0.973918       0.997681       0.999479       0.999994       0.989467       0.985442     
  0.999991       0.999996       0.957792       0.847951       0.743414       0.968886       0.967063       0.951458       0.973413       0.997703     
  0.999429       0.999991       0.991629       0.984276       0.999991       0.999997       0.972010       0.885515       0.832313       0.979354     
  0.978074       0.966584       0.982963       0.998795       0.999759       0.999998       0.994869       0.989524       0.999995       0.999998     
  0.961620       0.857132       0.771816       0.971803       0.970047       0.956138       0.976445       0.997840       0.999489       0.999994     
  0.990910       0.985344       0.999991       0.999997     
 
  0.941966       0.772280       0.635564       0.953435       0.948838       0.922796       0.956421       0.995668       0.998967       0.999985     
  0.979785       0.979934       0.999981       0.999992       0.944628       0.792532       0.655676       0.956828       0.953113       0.929554     
  0.960289       0.996158       0.999042       0.999986       0.982912       0.980839       0.999985       0.999994       0.955010       0.818440     
  0.716950       0.964695       0.961715       0.942265       0.968159       0.996989       0.999325       0.999992       0.985963       0.983793     
  0.999989       0.999995       0.950428       0.821041       0.695900       0.962643       0.960101       0.940600       0.966795       0.996964     
  0.999229       0.999988       0.988055       0.982197       0.999988       0.999996       0.968264       0.865760       0.802177       0.975784     
  0.973922       0.960198       0.979072       0.998436       0.999686       0.999997       0.992929       0.988291       0.999994       0.999997     
  0.955139       0.831730       0.728442       0.966172       0.963775       0.946367       0.970483       0.997086       0.999299       0.999992     
  0.987077       0.983372       0.999988       0.999995     
 
  0.933156       0.735181       0.585124       0.945229       0.939069       0.908389       0.948082       0.994505       0.998696       0.999978     
  0.974462       0.977469       0.999976       0.999989       0.935980       0.757460       0.605042       0.949031       0.943906       0.915664     
  0.952171       0.995084       0.998776       0.999980       0.977727       0.978641       0.999981       0.999993       0.948241       0.786691     
  0.673418       0.958324       0.954339       0.931032       0.961556       0.996164       0.999148       0.999989       0.982061       0.981993     
  0.999985       0.999994       0.941890       0.788867       0.643845       0.955287       0.951614       0.927510       0.958991       0.996027     
  0.998980       0.999984       0.983461       0.979934       0.999985       0.999995       0.963836       0.842286       0.768253       0.971461     
  0.968982       0.952585       0.974464       0.997993       0.999598       0.999995       0.990626       0.986971       0.999992       0.999996     
  0.947651       0.801155       0.680993       0.959539       0.956196       0.934618       0.963458       0.996148       0.999069       0.999989     
  0.982489       0.981224       0.999984       0.999993     
 
  0.923276       0.694020       0.532446       0.935769       0.927756       0.892258       0.938773       0.993147       0.998385       0.999970     
  0.968648       0.974683       0.999970       0.999986       0.926230       0.717714       0.551716       0.940000       0.933108       0.899855     
  0.943000       0.993794       0.998462       0.999973       0.971878       0.976202       0.999976       0.999991       0.940460       0.749992     
  0.626488       0.950893       0.945607       0.918125       0.954064       0.995210       0.998948       0.999984       0.977873       0.979991     
  0.999982       0.999992       0.932387       0.751913       0.589377       0.946880       0.941653       0.912489       0.950184       0.994884     
  0.998682       0.999978       0.978001       0.977514       0.999981       0.999993       0.958569       0.814488       0.730421       0.966274     
  0.963079       0.943573       0.969083       0.997459       0.999495       0.999993       0.988012       0.985531       0.999989       0.999995     
  0.938997       0.764797       0.629353       0.951730       0.947012       0.920702       0.955287       0.994997       0.998794       0.999984     
  0.977227       0.978798       0.999978       0.999991     
 
  0.912218       0.649165       0.478142       0.924857       0.914733       0.874368       0.928444       0.991581       0.998023       0.999933     
  0.962340       0.971522       0.999933       0.999953       0.915197       0.673170       0.495910       0.929440       0.920461       0.881990     
  0.932651       0.992279       0.998101       0.999962       0.965454       0.973451       0.999971       0.999988       0.931567       0.708369     
  0.576467       0.942207       0.935339       0.903501       0.945633       0.994121       0.998719       0.999952       0.973444       0.977718     
  0.999946       0.999958       0.921823       0.710061       0.532964       0.937197       0.930061       0.895539       0.940311       0.993528     
  0.998337       0.999969       0.971885       0.974881       0.999975       0.999991       0.952320       0.781957       0.688637       0.960101     
  0.956005       0.933012       0.962878       0.996824       0.999370       0.999971       0.985125       0.983909       0.999963       0.999970     
  0.929011       0.722275       0.573622       0.942472       0.935936       0.904466       0.945855       0.993617       0.998472       0.999977     
  0.971405       0.975998       0.999972       0.999988     
 
  0.899906       0.601342       0.423134       0.912353       0.899870       0.854755       0.917089       0.989823       0.997625       0.999894     
  0.955607       0.968007       0.999897       0.999920       0.902621       0.623831       0.437926       0.916987       0.905621       0.861858     
  0.920966       0.990537       0.997692       0.999946       0.958508       0.970307       0.999964       0.999985       0.921475       0.662127     
  0.523823       0.932043       0.923352       0.887132       0.936220       0.992906       0.998473       0.999918       0.968829       0.975163     
  0.999912       0.999925       0.909920       0.663063       0.474537       0.925865       0.916509       0.876444       0.929199       0.991955     
  0.997947       0.999957       0.965242       0.971939       0.999969       0.999988       0.944987       0.744548       0.642975       0.952812     
  0.947569       0.920802       0.955804       0.996093       0.999232       0.999949       0.982032       0.982077       0.999938       0.999945     
  0.917542       0.673723       0.514445       0.931453       0.922728       0.885875       0.935084       0.992011       0.998105       0.999967     
  0.965135       0.972758       0.999963       0.999984     
 
  0.886248       0.551370       0.368425       0.898121       0.883023       0.833447       0.904705       0.987883       0.997191       0.999850     
  0.948484       0.964142       0.999861       0.999889       0.888655       0.571766       0.380225       0.902734       0.888737       0.839954     
  0.908199       0.988636       0.997254       0.999925       0.951317       0.966805       0.999957       0.999982       0.910073       0.611926     
  0.469257       0.920159       0.909429       0.868993       0.925784       0.991565       0.998209       0.999881       0.964031       0.972309     
  0.999878       0.999894       0.896491       0.611468       0.414953       0.912611       0.900754       0.855161       0.916785       0.990184     
  0.997517       0.999940       0.958205       0.968623       0.999962       0.999985       0.936455       0.702337       0.593512       0.944203     
  0.937554       0.906839       0.947781       0.995264       0.999080       0.999924       0.978748       0.979984       0.999913       0.999922     
  0.904399       0.619719       0.452740       0.918324       0.907092       0.864877       0.922893       0.990182       0.997698       0.999952     
  0.958447       0.969030       0.999954       0.999979     
 
  0.871139       0.500016       0.315034       0.882018       0.864029       0.810462       0.891284       0.985767       0.996726       0.999799     
  0.940986       0.959933       0.999826       0.999858       0.873303       0.518409       0.324363       0.886665       0.869814       0.816503     
  0.894459       0.986614       0.996788       0.999872       0.944001       0.962949       0.999919       0.999947       0.897233       0.558765     
  0.413639       0.906320       0.893334       0.849061       0.914295       0.990098       0.997929       0.999838       0.959046       0.969140     
  0.999846       0.999864       0.881361       0.556364       0.355475       0.897203       0.882567       0.831704       0.903040       0.988233     
  0.997045       0.999886       0.950868       0.964860       0.999916       0.999943       0.926611       0.655783       0.540557       0.934031     
  0.925738       0.891034       0.938726       0.994337       0.998914       0.999897       0.975275       0.977586       0.999889       0.999899     
  0.889342       0.561338       0.389770       0.902735       0.888687       0.841399       0.909200       0.988124       0.997238       0.999895     
  0.951339       0.964767       0.999899       0.999929     
 
  0.854497       0.448133       0.264068       0.863923       0.842764       0.785860       0.876834       0.983488       0.996232       0.999742     
  0.933141       0.955372       0.999791       0.999828       0.856244       0.463909       0.270663       0.868415       0.848425       0.791213     
  0.879562       0.984471       0.996304       0.999812       0.936510       0.958696       0.999882       0.999914       0.882751       0.503694     
  0.357734       0.890257       0.874774       0.827224       0.901670       0.988505       0.997632       0.999790       0.953860       0.965610     
  0.999815       0.999835       0.864369       0.498937       0.297480       0.879424       0.861709       0.806085       0.887953       0.986134     
  0.996549       0.999824       0.943337       0.960656       0.999871       0.999902       0.915338       0.605633       0.484765       0.922047     
  0.911885       0.873314       0.928568       0.993311       0.998733       0.999865       0.971610       0.974842       0.999865       0.999877     
  0.872186       0.500104       0.327242       0.884408       0.867202       0.815452       0.893992       0.985863       0.996746       0.999830     
  0.943891       0.960007       0.999845       0.999880     
 
  0.836245       0.396594       0.216575       0.843725       0.819129       0.759719       0.861374       0.981061       0.995713       0.999677     
  0.924999       0.950450       0.999755       0.999798       0.837377       0.409351       0.220400       0.847840       0.824430       0.764152     
  0.863511       0.982217       0.995803       0.999743       0.928866       0.954017       0.999845       0.999882       0.866416       0.447839     
  0.302527       0.871717       0.853467       0.803379       0.887815       0.986789       0.997317       0.999733       0.948453       0.961664     
  0.999783       0.999806       0.845331       0.440320       0.242355       0.859028       0.837907       0.778298       0.871501       0.983901     
  0.996034       0.999753       0.935644       0.955985       0.999826       0.999863       0.902481       0.552700       0.427015       0.907981     
  0.895720       0.853584       0.917230       0.992184       0.998537       0.999828       0.967738       0.971714       0.999841       0.999855     
  0.852677       0.437515       0.266795       0.863010       0.842264       0.786966       0.877200       0.983402       0.996222       0.999754     
  0.936084       0.954721       0.999791       0.999832     
 
  0.816292       0.346270       0.173437       0.821301       0.793045       0.732114       0.844923       0.978505       0.995176       0.999603     
  0.916635       0.945159       0.999720       0.999769       0.816582       0.355775       0.174651       0.824772       0.797695       0.735359     
  0.846307       0.979862       0.995289       0.999664       0.921103       0.948883       0.999808       0.999850       0.848078       0.392368     
  0.249435       0.850500       0.829202       0.777513       0.872680       0.984950       0.996984       0.999666       0.942793       0.957274     
  0.999751       0.999777       0.823968       0.381656       0.191274       0.835683       0.810817       0.748236       0.853564       0.981542     
  0.995502       0.999671       0.927800       0.950761       0.999782       0.999825       0.887890       0.497958       0.368576       0.891593     
  0.876980       0.831799       0.904659       0.990956       0.998326       0.999783       0.963633       0.968175       0.999817       0.999833     
  0.830527       0.375222       0.210099       0.838207       0.813522       0.755856       0.858722       0.980746       0.995667       0.999665     
  0.927877       0.948839       0.999737       0.999784     
 
  0.794549       0.298079       0.135350       0.796546       0.764481       0.703157       0.827505       0.975844       0.994626       0.999519     
  0.908135       0.939491       0.999684       0.999739       0.793723       0.304225       0.134330       0.799046       0.768103       0.704907     
  0.827947       0.977398       0.994762       0.999573       0.913189       0.943283       0.999771       0.999819       0.827575       0.338385     
  0.199882       0.826397       0.801791       0.749612       0.856227       0.982973       0.996630       0.999589       0.936815       0.952422     
  0.999719       0.999748       0.799691       0.323609       0.144937       0.808711       0.779760       0.715420       0.833807       0.979041     
  0.994949       0.999574       0.919778       0.944819       0.999737       0.999786       0.871420       0.442437       0.310952       0.872655     
  0.855422       0.807941       0.890817       0.989621       0.998100       0.999731       0.959280       0.964218       0.999793       0.999811     
  0.805491       0.315014       0.158985       0.809723       0.780758       0.722126       0.838488       0.977895       0.995078       0.999560     
  0.919261       0.942298       0.999681       0.999736     
 
  0.770935       0.252925       0.102755       0.769383       0.733476       0.672996       0.809165       0.973103       0.994068       0.999424     
  0.899584       0.933431       0.999647       0.999710       0.768680       0.255816       0.100047       0.770538       0.735640       0.672931     
  0.808458       0.974817       0.994221       0.999470       0.905076       0.937215       0.999733       0.999787       0.804730       0.287046     
  0.155173       0.799225       0.771108       0.719712       0.838432       0.980844       0.996253       0.999499       0.930452       0.947079     
  0.999686       0.999719       0.772682       0.268749       0.105487       0.778302       0.745069       0.680495       0.812544       0.976410     
  0.994380       0.999460       0.911569       0.938239       0.999691       0.999748       0.852911       0.387161       0.255681       0.850932     
  0.830806       0.781993       0.875667       0.988175       0.997858       0.999670       0.954646       0.959831       0.999768       0.999789     
  0.777316       0.258558       0.115030       0.777304       0.743832       0.685848       0.816468       0.974837       0.994454       0.999436     
  0.910191       0.935054       0.999624       0.999688     
 
  0.745378       0.211583       0.757738E-001  0.739765       0.700123       0.641809       0.789954       0.970312       0.993510       0.999317     
  0.891089       0.926963       0.999609       0.999680       0.741344       0.211556       0.720055E-001  0.739172       0.700370       0.639608     
  0.787874       0.972114       0.993666       0.999352       0.896756       0.930662       0.999694       0.999756       0.779381       0.239488     
  0.116339       0.768864       0.737146       0.687914       0.819290       0.978556       0.995851       0.999396       0.923679       0.941203     
  0.999652       0.999690       0.743167       0.219173       0.738627E-001  0.744782       0.707279       0.644119       0.790089       0.973622     
  0.993789       0.999330       0.903008       0.931108       0.999645       0.999710       0.832149       0.333171       0.204172       0.826144     
  0.802872       0.753920       0.859154       0.986604       0.997598       0.999599       0.949686       0.954976       0.999743       0.999767     
  0.745784       0.207405       0.792259E-001  0.740792       0.702789       0.647231       0.792674       0.971557       0.993793       0.999291     
  0.900596       0.927059       0.999565       0.999639     
 
  0.717828       0.174608       0.542226E-001  0.707697       0.664600       0.609807       0.769932       0.967511       0.992961       0.999198     
  0.882787       0.920073       0.999571       0.999650       0.711626       0.172198       0.499892E-001  0.704948       0.662467       0.605134     
  0.766219       0.969295       0.993098       0.999220       0.888279       0.923598       0.999655       0.999724       0.751372       0.196624     
  0.839696E-001  0.735265       0.699999       0.654345       0.798797       0.976102       0.995424       0.999279       0.916487       0.934756     
  0.999618       0.999661       0.710679       0.175204       0.494372E-001  0.707736       0.666119       0.606093       0.766195       0.970614     
  0.993164       0.999181       0.893908       0.923310       0.999598       0.999672       0.807962       0.279784       0.156091       0.796870     
  0.770125       0.722538       0.840528       0.984818       0.997308       0.999513       0.944125       0.949400       0.999717       0.999744     
  0.709898       0.161787       0.512373E-001  0.699175       0.656809       0.605671       0.766578       0.967961       0.993078       0.999119     
  0.890226       0.918050       0.999503       0.999589     
 
  0.688246       0.142243       0.376294E-001  0.673210       0.627120       0.577180       0.749132       0.964726       0.992426       0.999067     
  0.874769       0.912732       0.999532       0.999619       0.679448       0.138085       0.334309E-001  0.667919       0.622190       0.569696     
  0.743493       0.966378       0.992526       0.999088       0.879713       0.915995       0.999635       0.999713       0.720583       0.158974     
  0.581884E-001  0.698456       0.659882       0.619194       0.776957       0.973479       0.994971       0.999146       0.908877       0.927702     
  0.999582       0.999631       0.675161       0.137449       0.315847E-001  0.667264       0.621958       0.566749       0.740905       0.967412     
  0.992517       0.999032       0.884418       0.914817       0.999575       0.999659       0.780936       0.230620       0.114788       0.763869     
  0.733580       0.689070       0.820429       0.982865       0.996995       0.999414       0.938111       0.943257       0.999690       0.999721     
  0.668574       0.122099       0.306542E-001  0.651410       0.605202       0.560720       0.737645       0.963973       0.992304       0.998938     
  0.878912       0.907757       0.999468       0.999567     
 
  0.656146       0.114102       0.251933E-001  0.635849       0.587387       0.543663       0.727285       0.961938       0.991903       0.998920     
  0.866995       0.904793       0.999491       0.999588       0.644837       0.109204       0.215714E-001  0.628287       0.579958       0.533583     
  0.719744       0.963366       0.991946       0.998939       0.871094       0.907814       0.999613       0.999700       0.686972       0.126667     
  0.386665E-001  0.658586       0.617166       0.582738       0.753817       0.970691       0.994492       0.998997       0.900887       0.920002     
  0.999545       0.999600       0.636608       0.105946       0.192888E-001  0.623578       0.575310       0.526449       0.714259       0.964029     
  0.991844       0.998861       0.874647       0.905562       0.999549       0.999644       0.752006       0.188275       0.819592E-001  0.728512     
  0.694902       0.654955       0.799634       0.980817       0.996670       0.999304       0.931887       0.936723       0.999662       0.999698     
  0.624289       0.907727E-001  0.175282E-001  0.600673       0.551841       0.515645       0.707708       0.959816       0.991510       0.998730     
  0.867360       0.896703       0.999429       0.999543     
 
  0.621385       0.901020E-001  0.162893E-001  0.595591       0.545637       0.509413       0.704362       0.959185       0.991400       0.998755     
  0.859619       0.896187       0.999449       0.999555       0.607887       0.852324E-001  0.134986E-001  0.586331       0.536290       0.497106     
  0.695042       0.960283       0.991362       0.998772       0.862514       0.899032       0.999589       0.999686       0.650582       0.995240E-001
  0.246642E-001  0.615930       0.572382       0.545316       0.729453       0.967760       0.993993       0.998831       0.892620       0.911618     
  0.999506       0.999569       0.595194       0.803210E-001  0.113518E-001  0.577095       0.526898       0.485667       0.686375       0.960471     
  0.991149       0.998665       0.864646       0.895519       0.999521       0.999628       0.720121       0.151403       0.560328E-001  0.689815     
  0.653156       0.619146       0.777394       0.978595       0.996320       0.999181       0.925237       0.929500       0.999633       0.999673     
  0.577867       0.667594E-001  0.975843E-002  0.548226       0.498321       0.471403       0.677212       0.955556       0.990707       0.998497     
  0.855803       0.884978       0.999387       0.999516     
 
  0.585236       0.706302E-001  0.103926E-001  0.554069       0.503738       0.475815       0.681182       0.956575       0.990936       0.998581     
  0.852958       0.887185       0.999405       0.999522       0.568774       0.656798E-001  0.827691E-002  0.542441       0.491796       0.460605     
  0.669472       0.957174       0.990785       0.998589       0.854163       0.889621       0.999562       0.999670       0.611525       0.771297E-001
  0.151699E-001  0.570864       0.526151       0.507283       0.703940       0.964704       0.993477       0.998648       0.884176       0.902516     
  0.999464       0.999535       0.551188       0.599190E-001  0.654630E-002  0.528329       0.477533       0.444867       0.657388       0.956741     
  0.990433       0.998448       0.854445       0.884649       0.999490       0.999610       0.685210       0.120002       0.366005E-001  0.647972     
  0.608760       0.581864       0.753712       0.976193       0.995944       0.999044       0.918160       0.921533       0.999602       0.999648     
  0.528541       0.481745E-001  0.532811E-002  0.493510       0.444306       0.427299       0.645478       0.951114       0.989884       0.998235     
  0.844093       0.872242       0.999339       0.999487     
 
  0.547905       0.549623E-001  0.661250E-002  0.511676       0.462158       0.442999       0.657774       0.954085       0.990509       0.998401     
  0.846934       0.877797       0.999359       0.999487       0.527734       0.499722E-001  0.505614E-002  0.497076       0.447106       0.424374     
  0.643099       0.954056       0.990215       0.998380       0.846132       0.879545       0.999514       0.999634       0.570007       0.589483E-001
  0.908739E-002  0.523872       0.479165       0.468994       0.677357       0.961531       0.992947       0.998453       0.875602       0.892680     
  0.999420       0.999500       0.504982       0.439865E-001  0.380222E-002  0.477927       0.428099       0.404503       0.627434       0.952851     
  0.989696       0.998195       0.844134       0.872903       0.999433       0.999567       0.647323       0.937633E-001  0.228610E-001  0.603307     
  0.562290       0.543463       0.728654       0.973620       0.995543       0.998896       0.910708       0.912805       0.999570       0.999622     
  0.476894       0.340931E-001  0.296350E-002  0.437493       0.390932       0.383857       0.612657       0.946504       0.989038       0.997929     
  0.832331       0.858456       0.999260       0.999426     
 
  0.509161       0.423032E-001  0.422938E-002  0.468283       0.420838       0.410715       0.633889       0.951694       0.990114       0.998213     
  0.841512       0.867916       0.999311       0.999451       0.485129       0.375378E-001  0.314568E-002  0.450812       0.402887       0.388696     
  0.616019       0.950917       0.989656       0.998160       0.838396       0.868813       0.999462       0.999596       0.526357       0.444150E-001
  0.539296E-002  0.475576       0.432191       0.430818       0.649809       0.958241       0.992406       0.998247       0.866930       0.882100     
  0.999372       0.999463       0.457102       0.317792E-001  0.230271E-002  0.426695       0.379516       0.364954       0.596637       0.948833     
  0.988954       0.997928       0.833888       0.860278       0.999374       0.999523       0.606626       0.722181E-001  0.137258E-001  0.556296     
  0.514463       0.504349       0.702314       0.970885       0.995121       0.998739       0.902944       0.903310       0.999535       0.999594     
  0.421900       0.233724E-001  0.173742E-002  0.379415       0.337631       0.340186       0.577813       0.941601       0.988161       0.997596     
  0.820309       0.843127       0.999173       0.999361     
 
  0.469328       0.321920E-001  0.276350E-002  0.424349       0.380252       0.379168       0.609621       0.949409       0.989754       0.998021     
  0.836706       0.857540       0.999260       0.999413       0.441401       0.278357E-001  0.203575E-002  0.404271       0.359754       0.353805     
  0.588327       0.947739       0.989107       0.997935       0.830905       0.857381       0.999408       0.999557       0.481015       0.329781E-001
  0.324267E-002  0.426679       0.385987       0.393087       0.621406       0.954834       0.991854       0.998034       0.858195       0.870734     
  0.999321       0.999424       0.408160       0.226083E-001  0.149578E-002  0.375549       0.332625       0.326438       0.565042       0.944691     
  0.988207       0.997652       0.823756       0.846711       0.999311       0.999477       0.562639       0.545613E-001  0.794688E-002  0.506692     
  0.465258       0.464271       0.674326       0.967933       0.994671       0.998574       0.894739       0.892822       0.999497       0.999565     
  0.363828       0.154460E-001  0.111451E-002  0.319968       0.285090       0.296364       0.540660       0.936403       0.987260       0.997237     
  0.808201       0.825898       0.999077       0.999290     
 
  0.428799       0.242193E-001  0.187382E-002  0.380363       0.340811       0.348527       0.585085       0.947198       0.989423       0.997827     
  0.832399       0.846681       0.999208       0.999373       0.397073       0.203843E-001  0.138961E-002  0.358115       0.318242       0.319896     
  0.560120       0.944516       0.988567       0.997706       0.823650       0.845198       0.999350       0.999515       0.434519       0.241291E-001
  0.202387E-002  0.377941       0.341233       0.356089       0.592251       0.951318       0.991295       0.997818       0.849456       0.858529     
  0.999266       0.999382       0.358897       0.158594E-001  0.104905E-002  0.325444       0.288119       0.289143       0.532695       0.940427     
  0.987457       0.997371       0.813798       0.832130       0.999243       0.999429       0.514148       0.400116E-001  0.446877E-002  0.453564     
  0.414021       0.422415       0.643839       0.964662       0.994180       0.998399       0.885887       0.880820       0.999455       0.999532     
  0.308663       0.102276E-001  0.796766E-003  0.265393       0.238343       0.256244       0.504386       0.931355       0.986416       0.996887     
  0.797127       0.808098       0.998975       0.999215     
 
  0.388005       0.180297E-001  0.133455E-002  0.336873       0.302872       0.318884       0.560382       0.945026       0.989116       0.997634     
  0.828459       0.835358       0.999153       0.999331       0.352743       0.147659E-001  0.100589E-002  0.313049       0.278806       0.287129     
  0.531506       0.941246       0.988040       0.997478       0.816661       0.832232       0.999288       0.999471       0.387514       0.174171E-001
  0.133870E-002  0.330177       0.298535       0.320084       0.562467       0.947726       0.990738       0.997601       0.840872       0.845425     
  0.999207       0.999338       0.308475       0.108669E-001  0.775891E-003  0.275648       0.245136       0.252107       0.498594       0.935944     
  0.986693       0.997081       0.803967       0.815937       0.999169       0.999376       0.464726       0.290161E-001  0.262708E-002  0.401169     
  0.364959       0.381882       0.612885       0.961317       0.993686       0.998228       0.877165       0.867956       0.999410       0.999498     
  0.257141       0.682445E-002  0.599998E-003  0.216196       0.197015       0.219450       0.468872       0.926363       0.985612       0.996552     
  0.786795       0.789670       0.998869       0.999137     
 
  0.347408       0.133070E-001  0.100086E-002  0.294468       0.266727       0.290293       0.535589       0.942874       0.988829       0.997445     
  0.824820       0.823577       0.999095       0.999287       0.309069       0.106133E-001  0.768686E-003  0.269770       0.241784       0.255643     
  0.502608       0.937922       0.987523       0.997254       0.809942       0.818430       0.999223       0.999425       0.340736       0.124369E-001
  0.946375E-003  0.284200       0.258376       0.285302       0.532193       0.944096       0.990191       0.997389       0.832631       0.831373     
  0.999144       0.999291       0.259095       0.737585E-002  0.594306E-003  0.228357       0.205208       0.216525       0.463657       0.931378     
  0.985946       0.996796       0.794770       0.798329       0.999087       0.999320       0.416141       0.209642E-001  0.167708E-002  0.351434     
  0.319666       0.343731       0.582261       0.958017       0.993211       0.998069       0.868963       0.854570       0.999363       0.999463     
  0.208868       0.457179E-002  0.454708E-003  0.171735       0.159899       0.185003       0.433205       0.921253       0.984820       0.996230     
  0.776859       0.770093       0.998755       0.999055     
 
  0.307500       0.976646E-002  0.782715E-003  0.253737       0.232607       0.262792       0.510773       0.940738       0.988561       0.997264     
  0.821480       0.811339       0.999036       0.999241       0.266742       0.760307E-002  0.610487E-003  0.228911       0.207399       0.225570     
  0.473546       0.934535       0.987019       0.997040       0.803503       0.803760       0.999153       0.999376       0.294975       0.882347E-002
  0.708192E-003  0.240745       0.221082       0.251933       0.501553       0.940442       0.989659       0.997188       0.824831       0.816384     
  0.999078       0.999242       0.214123       0.509137E-002  0.463023E-003  0.186523       0.170285       0.184286       0.429776       0.926913     
  0.985247       0.996537       0.786569       0.780147       0.999002       0.999261       0.367420       0.149404E-001  0.115069E-002  0.303327     
  0.276919       0.306733       0.550978       0.954669       0.992744       0.997921       0.861111       0.840174       0.999312       0.999426     
  0.162811       0.303924E-002  0.334639E-003  0.130870       0.125516       0.151650       0.395774       0.915791       0.984015       0.995920     
  0.767081       0.748288       0.998629       0.998964     
 
  0.268787       0.715445E-002  0.627136E-003  0.215237       0.200672       0.236424       0.485991       0.938629       0.988315       0.997094     
  0.818483       0.798647       0.998974       0.999193       0.226437       0.545554E-002  0.492984E-003  0.191015       0.175768       0.197058     
  0.444448       0.931101       0.986532       0.996841       0.797439       0.788257       0.999080       0.999324       0.249822       0.619804E-002
  0.544947E-003  0.199387       0.185933       0.219284       0.469815       0.936662       0.989131       0.996997       0.817331       0.799981     
  0.999005       0.999190       0.173080       0.355693E-002  0.356845E-003  0.149312       0.139180       0.154617       0.396231       0.922360     
  0.984568       0.996301       0.778911       0.760993       0.998910       0.999199       0.319402       0.105387E-001  0.841006E-003  0.257656     
  0.237130       0.271116       0.519181       0.951282       0.992289       0.997786       0.853704       0.824720       0.999258       0.999387     
  0.121261       0.202112E-002  0.235986E-003  0.953350E-001  0.948773E-001  0.120611       0.357395       0.910045       0.983216       0.995636     
  0.757805       0.724442       0.998489       0.998865     
 
  0.231770       0.525110E-002  0.505586E-003  0.179475       0.171036       0.211248       0.461303       0.936558       0.988092       0.996937     
  0.815882       0.785511       0.998910       0.999142       0.188794       0.393829E-002  0.396748E-003  0.156528       0.146939       0.170279     
  0.415453       0.927643       0.986068       0.996659       0.791880       0.771954       0.999003       0.999270       0.207301       0.437560E-002
  0.423448E-003  0.161859       0.154018       0.188420       0.437882       0.932826       0.988620       0.996825       0.810327       0.782462     
  0.998928       0.999134       0.136344       0.251400E-002  0.268862E-003  0.116740       0.111590       0.127544       0.362995       0.917659     
  0.983901       0.996091       0.771711       0.740782       0.998812       0.999133       0.272418       0.736789E-002  0.638304E-003  0.214661     
  0.200131       0.236703       0.486644       0.947808       0.991843       0.997665       0.846698       0.808040       0.999199       0.999344     
  0.883359E-001  0.138350E-002  0.163025E-003  0.680956E-001  0.704922E-001  0.948504E-001  0.321763       0.904471       0.982487       0.995403     
  0.749726       0.700818       0.998347       0.998764     
 
  0.196921       0.387269E-002  0.404665E-003  0.146881       0.143795       0.187336       0.436769       0.934533       0.987893       0.996796     
  0.813709       0.771958       0.998843       0.999089       0.154357       0.286714E-002  0.313852E-003  0.125771       0.120937       0.145392     
  0.386684       0.924168       0.985631       0.996497       0.786904       0.754844       0.998921       0.999214       0.169226       0.314453E-002
  0.328207E-003  0.129437       0.126133       0.160351       0.406796       0.929007       0.988135       0.996677       0.803928       0.764398     
  0.998848       0.999077       0.104424       0.179446E-002  0.197231E-003  0.889490E-001  0.875018E-001  0.103308       0.330318       0.912795     
  0.983248       0.995905       0.765012       0.719615       0.998707       0.999063       0.225452       0.506262E-002  0.485174E-003  0.173399     
  0.164729       0.202349       0.452055       0.944072       0.991388       0.997555       0.839856       0.789340       0.999133       0.999298     
  0.622653E-001  0.949367E-003  0.108837E-003  0.471288E-001  0.508663E-001  0.732136E-001  0.287796       0.898828       0.981793       0.995205     
  0.742394       0.676789       0.998198       0.998660     
 
  0.164661       0.287334E-002  0.319013E-003  0.117771       0.119033       0.164778       0.412460       0.932553       0.987717       0.996669     
  0.811958       0.758018       0.998774       0.999032       0.123546       0.210442E-002  0.242315E-003  0.989329E-001  0.977857E-001  0.122556     
  0.358264       0.920671       0.985221       0.996353       0.782537       0.736944       0.998836       0.999155       0.135050       0.227922E-002
  0.249625E-003  0.101297       0.101433       0.134506       0.375920       0.925077       0.987660       0.996547       0.797902       0.745455     
  0.998764       0.999017       0.775588E-001  0.128613E-002  0.140562E-003  0.658849E-001  0.668861E-001  0.820820E-001  0.298452       0.907738     
  0.982606       0.995742       0.758792       0.697619       0.998595       0.998990       0.182774       0.352940E-002  0.368617E-003  0.137376     
  0.133582       0.170778       0.417962       0.940283       0.990952       0.997462       0.833612       0.769892       0.999063       0.999248     
  0.417256E-001  0.635482E-003  0.688761E-004  0.310020E-001  0.350089E-001  0.548564E-001  0.254448       0.892855       0.981105       0.995030     
  0.735520       0.651518       0.998038       0.998549     
 
  0.135340       0.214305E-002  0.246587E-003  0.923343E-001  0.968255E-001  0.143678       0.388448       0.930595       0.987560       0.996556     
  0.810567       0.743723       0.998702       0.998973       0.966316E-001  0.155217E-002  0.182171E-003  0.760354E-001  0.774899E-001  0.101905     
  0.330337       0.917112       0.984832       0.996226       0.778687       0.718342       0.998746       0.999093       0.105164       0.166071E-002
  0.185487E-003  0.774240E-001  0.799034E-001  0.111100       0.345448       0.921007       0.987193       0.996433       0.792217       0.725719     
  0.998675       0.998954       0.557200E-001  0.918292E-003  0.970048E-004  0.473080E-001  0.496681E-001  0.639300E-001  0.267611       0.902439     
  0.981969       0.995599       0.752967       0.674923       0.998475       0.998912       0.146177       0.252871E-002  0.279260E-003  0.107574     
  0.107369       0.143094       0.385700       0.936524       0.990542       0.997385       0.827988       0.750516       0.998992       0.999199     
  0.258125E-001  0.401451E-003  0.399580E-004  0.187868E-001  0.223173E-001  0.392264E-001  0.220637       0.886219       0.980396       0.994871     
  0.728942       0.623859       0.997858       0.998424     
 
  0.109193       0.160234E-002  0.186353E-003  0.706416E-001  0.772312E-001  0.124105       0.364763       0.928629       0.987417       0.996454     
  0.809456       0.729075       0.998627       0.998911       0.737312E-001  0.114417E-002  0.133194E-003  0.569710E-001  0.600293E-001  0.835245E-001
  0.303027       0.913444       0.984457       0.996113       0.775217       0.699124       0.998652       0.999028       0.797553E-001  0.120973E-002
  0.134224E-003  0.576716E-001  0.614959E-001  0.902885E-001  0.315564       0.916765       0.986731       0.996332       0.786822       0.705279     
  0.998581       0.998888       0.384824E-001  0.645490E-003  0.643579E-004  0.327157E-001  0.355873E-001  0.486736E-001  0.237730       0.896791     
  0.981326       0.995473       0.747350       0.651447       0.998347       0.998829       0.114074       0.182556E-002  0.207040E-003  0.822618E-001
  0.845405E-001  0.118028       0.353892       0.932590       0.990135       0.997317       0.822626       0.730422       0.998915       0.999146     
  0.152687E-001  0.246493E-003  0.221106E-004  0.108722E-001  0.135940E-001  0.275650E-001  0.189754       0.879431       0.979724       0.994735     
  0.723189       0.596403       0.997671       0.998295     
 
  0.863305E-001  0.119616E-002  0.137402E-003  0.526799E-001  0.602914E-001  0.106054       0.341297       0.926611       0.987284       0.996363     
  0.808561       0.713984       0.998549       0.998846       0.547741E-001  0.837882E-003  0.945609E-004  0.415373E-001  0.453480E-001  0.674316E-001
  0.276417       0.909604       0.984089       0.996014       0.771973       0.679345       0.998554       0.998960       0.587862E-001  0.875570E-003
  0.943224E-004  0.417740E-001  0.461156E-001  0.721528E-001  0.286454       0.912321       0.986271       0.996243       0.781672       0.684240     
  0.998481       0.998819       0.250830E-001  0.437091E-003  0.402296E-004  0.213883E-001  0.241653E-001  0.358561E-001  0.208140       0.890529     
  0.980649       0.995357       0.741669       0.626508       0.998206       0.998739       0.866888E-001  0.132130E-002  0.149627E-003  0.612994E-001
  0.650346E-001  0.957716E-001  0.322772       0.928469       0.989732       0.997256       0.817527       0.709708       0.998834       0.999090     
  0.876644E-002  0.148465E-003  0.118578E-004  0.609565E-002  0.801547E-002  0.192895E-001  0.162533       0.872606       0.979091       0.994615     
  0.718141       0.570024       0.997483       0.998165     
 
  0.667485E-001  0.887529E-003  0.987164E-004  0.382923E-001  0.460008E-001  0.894984E-001  0.317889       0.924478       0.987154       0.996281     
  0.807817       0.698304       0.998467       0.998778       0.395321E-001  0.605883E-003  0.650706E-004  0.294098E-001  0.333195E-001  0.535890E-001
  0.250588       0.905531       0.983722       0.995935       0.768811       0.659060       0.998462       0.998901       0.420197E-001  0.625647E-003
  0.641995E-004  0.293537E-001  0.335992E-001  0.566804E-001  0.258289       0.907639       0.985810       0.996163       0.776700       0.662706     
  0.998377       0.998747       0.156844E-001  0.288237E-003  0.241235E-004  0.134274E-001  0.157629E-001  0.259619E-001  0.180633       0.883932     
  0.979975       0.995262       0.736254       0.601479       0.998072       0.998659       0.633385E-001  0.941975E-003  0.103766E-003  0.439002E-001
  0.482403E-001  0.758245E-001  0.291576       0.924016       0.989321       0.997197       0.812607       0.687778       0.998746       0.999030     
  0.474345E-002  0.851345E-004  0.595850E-005  0.320518E-002  0.444210E-002  0.132379E-001  0.137492       0.865352       0.978462       0.994514     
  0.713399       0.543412       0.997301       0.998045     
 
  0.503629E-001  0.651326E-003  0.689953E-004  0.271132E-001  0.342453E-001  0.744701E-001  0.294489       0.922174       0.987023       0.996206     
  0.807179       0.681932       0.998382       0.998707       0.276614E-001  0.430184E-003  0.433091E-004  0.201735E-001  0.237492E-001  0.419229E-001
  0.225685       0.901196       0.983348       0.995862       0.765700       0.638349       0.998365       0.998839       0.290652E-001  0.438870E-003
  0.422130E-004  0.199600E-001  0.237183E-001  0.437722E-001  0.231245       0.902683       0.985343       0.996087       0.771844       0.640778     
  0.998266       0.998672       0.952807E-002  0.186478E-003  0.140592E-004  0.818773E-002  0.997954E-002  0.186920E-001  0.155977       0.877167     
  0.979316       0.995176       0.731214       0.577140       0.997933       0.998577       0.441612E-001  0.654141E-003  0.684242E-004  0.299663E-001
  0.342185E-001  0.583807E-001  0.260460       0.919180       0.988905       0.997138       0.807962       0.664555       0.998649       0.998965     
  0.227723E-002  0.439308E-004  0.262192E-005  0.147906E-002  0.217600E-002  0.867023E-002  0.113078       0.856993       0.977780       0.994408     
  0.708603       0.514561       0.997092       0.997906     
 
  0.370034E-001  0.470719E-003  0.468505E-004  0.186999E-001  0.248435E-001  0.609943E-001  0.271084       0.919631       0.986885       0.996136     
  0.806589       0.664752       0.998291       0.998634       0.187275E-001  0.298477E-003  0.278108E-004  0.133711E-001  0.163755E-001  0.322973E-001
  0.201848       0.896583       0.982969       0.995793       0.762646       0.617311       0.998263       0.998773       0.194126E-001  0.300693E-003
  0.267389E-004  0.130976E-001  0.161746E-001  0.332449E-001  0.205476       0.897416       0.984867       0.996014       0.767036       0.618539     
  0.998150       0.998593       0.551918E-002  0.116149E-003  0.780029E-005  0.475380E-002  0.602078E-002  0.132605E-001  0.133266       0.869964     
  0.978645       0.995092       0.726285       0.552661       0.997786       0.998490       0.301199E-001  0.451250E-003  0.441178E-004  0.200048E-001
  0.237373E-001  0.445921E-001  0.231922       0.914298       0.988514       0.997082       0.803933       0.641851       0.998550       0.998899     
  0.101256E-002  0.211551E-004  0.105981E-005  0.623736E-003  0.978205E-003  0.561057E-002  0.914863E-001  0.848051       0.977090       0.994303     
  0.704158       0.485712       0.996870       0.997755     
 
  0.263192E-001  0.332736E-003  0.307407E-004  0.125128E-001  0.174797E-001  0.489814E-001  0.247470       0.916733       0.986732       0.996070     
  0.805977       0.646483       0.998194       0.998557       0.122427E-001  0.201549E-003  0.171859E-004  0.853946E-002  0.108926E-001  0.245232E-001
  0.179210       0.891672       0.982582       0.995727       0.759640       0.596018       0.998154       0.998703       0.124908E-001  0.200335E-003
  0.162698E-004  0.826917E-002  0.106230E-001  0.248538E-001  0.181115       0.891804       0.984380       0.995943       0.762233       0.596051     
  0.998028       0.998511       0.304054E-002  0.693936E-004  0.410825E-005  0.261700E-002  0.344794E-002  0.929535E-002  0.112588       0.862294     
  0.977960       0.995009       0.721440       0.528109       0.997630       0.998397       0.200201E-001  0.306549E-003  0.276744E-004  0.130007E-001
  0.160315E-001  0.337464E-001  0.205600       0.909301       0.988140       0.997028       0.800400       0.619457       0.998448       0.998830     
  0.444496E-003  0.100379E-004  0.422416E-006  0.255981E-003  0.428352E-003  0.371915E-002  0.739804E-001  0.839183       0.976438       0.994204     
  0.700301       0.459044       0.996649       0.997602     
 
  0.180335E-001  0.228816E-003  0.193918E-004  0.808819E-002  0.118733E-001  0.384916E-001  0.223758       0.913409       0.986557       0.996005     
  0.805334       0.627066       0.998089       0.998477       0.771127E-002  0.131977E-003  0.101928E-004  0.523902E-002  0.696844E-002  0.183734E-001
  0.157876       0.886437       0.982187       0.995662       0.756646       0.574523       0.998040       0.998630       0.772624E-002  0.129327E-003
  0.948500E-005  0.500839E-002  0.669937E-002  0.183160E-001  0.158288       0.885827       0.983879       0.995873       0.757434       0.573376     
  0.997900       0.998425       0.158945E-002  0.396409E-004  0.204907E-005  0.135987E-002  0.186667E-002  0.645642E-002  0.939914E-001  0.854136     
  0.977260       0.994926       0.716697       0.503567       0.997464       0.998299       0.128166E-001  0.202273E-003  0.166578E-004  0.811752E-002
  0.104146E-001  0.251543E-001  0.180842       0.904047       0.987771       0.996974       0.797264       0.596831       0.998340       0.998759     
  0.182365E-003  0.444622E-005  0.156237E-006  0.957455E-004  0.172185E-003  0.245054E-002  0.588756E-001  0.829732       0.975768       0.994103     
  0.696621       0.432571       0.996416       0.997434     
 
  0.119864E-001  0.154064E-003  0.118661E-004  0.509365E-002  0.784201E-002  0.297843E-001  0.200761       0.909704       0.986363       0.995941     
  0.804680       0.607068       0.997978       0.998393       0.467080E-002  0.835661E-004  0.578798E-005  0.307808E-002  0.427547E-002  0.136047E-001
  0.137948       0.880858       0.981780       0.995598       0.753654       0.552892       0.997919       0.998551       0.458439E-002  0.806482E-004
  0.528453E-005  0.290042E-002  0.404430E-002  0.133298E-001  0.137100       0.879468       0.983367       0.995803       0.752662       0.550578     
  0.997765       0.998335       0.787018E-003  0.215850E-004  0.966118E-006  0.663700E-003  0.951529E-003  0.445438E-002  0.774811E-001  0.845473     
  0.976545       0.994841       0.712078       0.479111       0.997289       0.998196       0.788607E-002  0.129186E-003  0.959666E-005  0.485438E-002
  0.648877E-002  0.184974E-001  0.157751       0.898518       0.987409       0.996918       0.794529       0.574047       0.998227       0.998683     
  0.664944E-004  0.173789E-005  0.472110E-007  0.304035E-004  0.595336E-004  0.156753E-002  0.454263E-001  0.819096       0.975040       0.993994     
  0.692902       0.404969       0.996154       0.997240     
 
  0.773275E-002  0.101563E-003  0.704901E-005  0.312663E-002  0.503812E-002  0.227442E-001  0.178763       0.905609       0.986148       0.995879     
  0.804023       0.586677       0.997862       0.998307       0.271529E-002  0.510270E-004  0.313885E-005  0.172579E-002  0.250799E-002  0.997206E-002
  0.119495       0.874932       0.981365       0.995533       0.750742       0.531175       0.997792       0.998468       0.260429E-002  0.484503E-004
  0.280766E-005  0.160039E-002  0.233008E-002  0.960037E-002  0.117627       0.872730       0.982845       0.995731       0.748000       0.527719     
  0.997624       0.998242       0.368838E-003  0.111654E-004  0.430438E-006  0.302587E-003  0.454769E-003  0.305731E-002  0.630208E-001  0.836289     
  0.975815       0.994755       0.707601       0.454805       0.997103       0.998086       0.452463E-002  0.775844E-004  0.511080E-005  0.268815E-002
  0.375813E-002  0.132315E-001  0.135367       0.892355       0.987027       0.996859       0.791926       0.550025       0.998102       0.998598     
  0.220889E-004  0.602190E-006  0.421914E-008  0.821497E-005  0.177500E-004  0.978227E-003  0.340477E-001  0.807412       0.974264       0.993880     
  0.689314       0.376976       0.995865       0.997014     
 
  0.480838E-002  0.651132E-004  0.403384E-005  0.185598E-002  0.312614E-002  0.171049E-001  0.157662       0.901042       0.985907       0.995816     
  0.803354       0.565720       0.997738       0.998216       0.151253E-002  0.299753E-004  0.162236E-005  0.920071E-003  0.140245E-002  0.724831E-002
  0.102567       0.868661       0.980940       0.995458       0.748020       0.509425       0.997648       0.998369       0.141419E-002  0.279622E-004
  0.142000E-005  0.838095E-003  0.127714E-002  0.685625E-002  0.999133E-001  0.865618       0.982318       0.995659       0.743570       0.504854     
  0.997476       0.998144       0.159149E-003  0.532926E-005  0.170095E-006  0.124227E-003  0.196991E-003  0.206189E-002  0.501451E-001  0.826221     
  0.975040       0.994654       0.703132       0.429888       0.996888       0.997952       0.244942E-002  0.442434E-004  0.254879E-005  0.139235E-002
  0.204231E-002  0.932485E-002  0.114682       0.885668       0.986630       0.996798       0.789340       0.525636       0.997967       0.998504     
  0.755223E-005  0.203744E-006  0.876238E-009  0.211899E-005  0.507834E-005  0.617735E-003  0.254228E-001  0.795722       0.973492       0.993754     
  0.686215       0.351137       0.995557       0.996755     
 
  0.287688E-002  0.405410E-004  0.222175E-005  0.106334E-002  0.187010E-002  0.126866E-001  0.137639       0.895956       0.985636       0.995752     
  0.802670       0.544273       0.997606       0.998120       0.806319E-003  0.169001E-004  0.798488E-006  0.464789E-003  0.745391E-003  0.523077E-002
  0.871716E-001  0.862029       0.980510       0.995382       0.745547       0.487668       0.997496       0.998263       0.733400E-003  0.154619E-004
  0.682908E-006  0.414890E-003  0.663721E-003  0.486432E-002  0.839768E-001  0.858127       0.981788       0.995586       0.739443       0.482043     
  0.997321       0.998041       0.642621E-004  0.236135E-005  0.277629E-007  0.461682E-004  0.777541E-004  0.137434E-002  0.391328E-001  0.815414     
  0.974239       0.994551       0.698819       0.404926       0.996659       0.997808       0.130621E-002  0.248819E-004  0.154632E-005  0.704752E-003
  0.108504E-002  0.664978E-002  0.970150E-001  0.878918       0.986243       0.996740       0.786913       0.502588       0.997832       0.998408     
  0.261324E-005  0.648054E-007  0.876086E-009  0.495732E-006  0.132874E-005  0.384545E-003  0.186659E-001  0.783490       0.972689       0.993626     
  0.683437       0.326209       0.995233       0.996468     
 
  0.165357E-002  0.244773E-004  0.117694E-005  0.586567E-003  0.107636E-002  0.929443E-002  0.118846       0.890304       0.985329       0.995686     
  0.801966       0.522413       0.997464       0.998019       0.410800E-003  0.914280E-005  0.374729E-006  0.222534E-003  0.376157E-003  0.374409E-002
  0.731971E-001  0.854892       0.980054       0.995304       0.743256       0.465758       0.997334       0.998145       0.356545E-003  0.803358E-005
  0.199174E-006  0.189444E-003  0.319790E-003  0.340281E-002  0.694682E-001  0.850039       0.981242       0.995510       0.735546       0.458780     
  0.997154       0.997929       0.256796E-004  0.101030E-005  0.681791E-008  0.162631E-004  0.292227E-004  0.921008E-003  0.303126E-001  0.804419     
  0.973450       0.994449       0.694914       0.381200       0.996425       0.997658       0.669314E-003  0.134629E-004  0.154575E-005  0.338475E-003
  0.548692E-003  0.473322E-002  0.813618E-001  0.871824       0.985847       0.996681       0.784531       0.479846       0.997690       0.998302     
  0.913591E-006  0.187588E-007  0.875957E-009  0.100572E-006  0.305592E-006  0.231067E-003  0.132958E-001  0.770131       0.971795       0.993491     
  0.680889       0.301346       0.994879       0.996136     
 
  0.912113E-003  0.143087E-004  0.601265E-006  0.310693E-003  0.594666E-003  0.673788E-002  0.101427       0.884035       0.984968       0.995603     
  0.801230       0.500233       0.997306       0.997902       0.199904E-003  0.474837E-005  0.101547E-006  0.101057E-003  0.180128E-003  0.265382E-002
  0.605603E-001  0.847062       0.979529       0.995206       0.741046       0.443561       0.997149       0.998001       0.165298E-003  0.396498E-005
  0.615713E-007  0.807093E-004  0.144461E-003  0.236758E-002  0.567521E-001  0.841499       0.980678       0.995415       0.731977       0.435682     
  0.996970       0.997802       0.100824E-004  0.408901E-006  0.681561E-008  0.528170E-005  0.101954E-004  0.611690E-003  0.231551E-001  0.792960     
  0.972630       0.994325       0.691299       0.358089       0.996171       0.997484       0.327760E-003  0.695198E-005  0.154527E-005  0.152643E-003
  0.261745E-003  0.335329E-002  0.674989E-001  0.864312       0.985429       0.996607       0.782177       0.457230       0.997534       0.998181     
  0.320252E-006  0.346141E-008  0.875814E-009  0.159808E-007  0.562123E-007  0.129061E-003  0.893582E-002  0.754508       0.970683       0.993313     
  0.678476       0.275205       0.994455       0.995716     
 
  0.482586E-003  0.808545E-005  0.218113E-006  0.157542E-003  0.314567E-003  0.484082E-002  0.854921E-001  0.877111       0.984541       0.995497     
  0.800461       0.477829       0.997127       0.997764       0.931477E-004  0.236540E-005  0.258205E-007  0.434126E-004  0.816665E-004  0.186221E-002
  0.492979E-001  0.838470       0.978917       0.995083       0.738903       0.421151       0.996939       0.997824       0.750096E-004  0.189185E-005
  0.615326E-007  0.327307E-004  0.623670E-004  0.165257E-002  0.460209E-001  0.832725       0.980102       0.995300       0.728804       0.413375     
  0.996771       0.997658       0.392662E-005  0.154870E-006  0.681364E-008  0.155476E-005  0.325684E-005  0.399560E-003  0.173873E-001  0.780930     
  0.971755       0.994172       0.687965       0.335407       0.995888       0.997275       0.153681E-003  0.341479E-005  0.154486E-005  0.643460E-004
  0.117370E-003  0.236309E-002  0.553749E-001  0.856377       0.984988       0.996515       0.779905       0.434790       0.997363       0.998042     
  0.127944E-006  0.775805E-009  0.875650E-009  0.224783E-008  0.930309E-008  0.696992E-004  0.579922E-002  0.737636       0.969352       0.993094     
  0.676355       0.250023       0.993977       0.995204     
 
  0.245080E-003  0.441064E-005  0.702074E-007  0.762439E-004  0.158931E-003  0.345000E-002  0.711058E-001  0.869507       0.984056       0.995388     
  0.799685       0.455294       0.996935       0.997610       0.417925E-004  0.112925E-005  0.218877E-007  0.175801E-004  0.349509E-004  0.129250E-002
  0.394218E-001  0.829075       0.978212       0.994955       0.736823       0.398638       0.996708       0.997612       0.329601E-004  0.856176E-006
  0.615137E-007  0.123257E-004  0.251682E-004  0.114483E-002  0.368416E-001  0.823505       0.979510       0.995183       0.725919       0.391314     
  0.996560       0.997497       0.155198E-005  0.494639E-007  0.681206E-008  0.411619E-006  0.947726E-006  0.255925E-003  0.128312E-001  0.768349     
  0.970839       0.994012       0.684981       0.313207       0.995587       0.997035       0.678068E-004  0.159100E-005  0.154453E-005  0.245616E-004
  0.480789E-004  0.163755E-002  0.446351E-001  0.847796       0.984528       0.996418       0.777743       0.411977       0.997178       0.997890     
  0.643851E-007  0.775414E-009  0.875478E-009  0.119635E-009  0.148742E-008  0.374157E-004  0.369956E-002  0.720320       0.967822       0.992871     
  0.674496       0.226915       0.993468       0.994612     
 
  0.119733E-003  0.231996E-005  0.474865E-007  0.351085E-004  0.764914E-004  0.243915E-002  0.582897E-001  0.861181       0.983502       0.995277     
  0.798902       0.432706       0.996728       0.997436       0.182248E-004  0.516026E-006  0.218815E-007  0.668535E-005  0.140813E-004  0.885729E-003
  0.309267E-001  0.818832       0.977384       0.994823       0.734776       0.376127       0.996451       0.997350       0.141805E-004  0.358378E-006
  0.614981E-007  0.428970E-005  0.945948E-005  0.785214E-003  0.290955E-001  0.813810       0.978894       0.995061       0.723309       0.369518     
  0.996337       0.997317       0.639646E-006  0.122654E-007  0.681074E-008  0.972254E-007  0.250058E-006  0.160198E-003  0.928736E-002  0.755165     
  0.969871       0.993845       0.682340       0.291500       0.995264       0.996760       0.282685E-004  0.145618E-005  0.154425E-005  0.835844E-005
  0.177444E-004  0.111019E-002  0.352321E-001  0.838459       0.984046       0.996315       0.775743       0.388730       0.996979       0.997724     
  0.426247E-007  0.775063E-009  0.875282E-009  0.102613E-011  0.113210E-009  0.193352E-004  0.226355E-002  0.701708       0.965974       0.992633     
  0.672750       0.204645       0.992899       0.993902     
 
  0.565324E-004  0.117516E-005  0.474773E-007  0.153359E-004  0.349857E-004  0.170943E-002  0.470464E-001  0.852091       0.982863       0.995159     
  0.798112       0.410138       0.996503       0.997236       0.782740E-005  0.225902E-006  0.218759E-007  0.237719E-005  0.532567E-005  0.597859E-003
  0.237551E-001  0.807702       0.976388       0.994682       0.732771       0.353706       0.996161       0.997020       0.607645E-005  0.127991E-006
  0.614851E-007  0.137677E-005  0.330378E-005  0.531113E-003  0.226299E-001  0.803544       0.978244       0.994931       0.720945       0.347953     
  0.996098       0.997116       0.282774E-006  0.701965E-008  0.680954E-008  0.204788E-007  0.596327E-007  0.975487E-004  0.655407E-002  0.741155     
  0.968780       0.993667       0.679933       0.270195       0.994907       0.996429       0.120040E-004  0.145488E-005  0.154403E-005  0.271332E-005
  0.627612E-005  0.751817E-003  0.275932E-001  0.828851       0.983553       0.996210       0.774060       0.366476       0.996776       0.997553     
  0.269192E-007  0.774707E-009  0.875030E-009  0.193807E-012  0.393262E-011  0.961411E-005  0.132182E-002  0.681758       0.963656       0.992371     
  0.671111       0.183298       0.992249       0.993018     
 
  0.260039E-004  0.573482E-006  0.474688E-007  0.633407E-005  0.151679E-004  0.118561E-002  0.373313E-001  0.842196       0.982114       0.995038     
  0.797317       0.387659       0.996258       0.997000       0.337768E-005  0.821752E-007  0.218704E-007  0.787253E-006  0.188437E-005  0.396288E-003
  0.178336E-001  0.795647       0.975167       0.994530       0.730832       0.331442       0.995832       0.996603       0.264792E-005  0.585720E-007
  0.614739E-007  0.407602E-006  0.107116E-005  0.352668E-003  0.172752E-001  0.792556       0.977543       0.994797       0.718773       0.326568     
  0.995843       0.996896       0.142580E-006  0.701508E-008  0.680837E-008  0.119288E-008  0.128697E-007  0.575703E-004  0.448166E-002  0.726074     
  0.967471       0.993480       0.677641       0.249233       0.994507       0.996025       0.527526E-005  0.145397E-005  0.154386E-005  0.124502E-005
  0.211737E-005  0.505711E-003  0.213940E-001  0.818856       0.983042       0.996104       0.772665       0.344993       0.996567       0.997377     
  0.241809E-007  0.774257E-009  0.874665E-009  0.193690E-012  0.199336E-011  0.439706E-005  0.705842E-003  0.659092       0.960457       0.992066     
  0.669512       0.161782       0.991443       0.991791     
 
  0.117991E-004  0.253491E-006  0.474606E-007  0.246542E-005  0.621604E-005  0.811771E-003  0.290865E-001  0.831451       0.981222       0.994909     
  0.796515       0.365329       0.995988       0.996717       0.149849E-005  0.260729E-007  0.218649E-007  0.241571E-006  0.621962E-006  0.257186E-003
  0.130397E-001  0.782638       0.973662       0.994368       0.728980       0.309416       0.995455       0.996075       0.120624E-005  0.585215E-007
  0.614641E-007  0.824430E-007  0.321895E-006  0.229173E-003  0.129108E-001  0.780744       0.976764       0.994656       0.716764       0.305387     
  0.995569       0.996657       0.853098E-007  0.701132E-008  0.680715E-008  0.304699E-010  0.134236E-008  0.328983E-004  0.295738E-002  0.709852     
  0.965900       0.993283       0.675443       0.228701       0.994058       0.995541       0.239837E-005  0.145329E-005  0.154370E-005  0.124430E-005
  0.110721E-005  0.333877E-003  0.162984E-001  0.808189       0.982499       0.995992       0.771480       0.323778       0.996343       0.997191     
  0.241593E-007  0.773703E-009  0.874169E-009  0.193553E-012  0.199229E-011  0.193819E-005  0.356921E-003  0.634994       0.956375       0.991723     
  0.668054       0.141630       0.990508       0.990225     
 
  0.536996E-005  0.992442E-007  0.474524E-007  0.901330E-006  0.240143E-005  0.547151E-003  0.222025E-001  0.819813       0.980151       0.994770     
  0.795706       0.343210       0.995687       0.996373       0.699311E-006  0.232785E-007  0.218592E-007  0.685507E-007  0.190538E-006  0.163067E-003
  0.926704E-002  0.768646       0.971816       0.994192       0.727204       0.287725       0.995023       0.995427       0.591475E-006  0.584820E-007
  0.614553E-007  0.808330E-008  0.762768E-007  0.145483E-003  0.943199E-002  0.768070       0.975891       0.994509       0.714906       0.284499     
  0.995272       0.996396       0.450155E-007  0.700763E-008  0.680556E-008  0.173264E-010  0.959049E-010  0.181033E-004  0.186606E-002  0.692313     
  0.963891       0.993064       0.673348       0.208531       0.993529       0.994900       0.166753E-005  0.145274E-005  0.154354E-005  0.124374E-005
  0.110711E-005  0.215775E-003  0.121588E-001  0.796741       0.981895       0.995872       0.770427       0.302850       0.996096       0.996981     
  0.241341E-007  0.773074E-009  0.873566E-009  0.193403E-012  0.199101E-011  0.869002E-006  0.179775E-003  0.611082       0.951724       0.991353     
  0.666724       0.123982       0.989506       0.988451     
 
  0.249694E-005  0.588664E-007  0.474437E-007  0.308722E-006  0.871707E-006  0.362089E-003  0.165526E-001  0.807246       0.978847       0.994623     
  0.794891       0.321372       0.995348       0.995954       0.357765E-006  0.232594E-007  0.218530E-007  0.617456E-008  0.540458E-007  0.100865E-003
  0.638888E-002  0.753648       0.969596       0.994003       0.725463       0.266473       0.994534       0.994658       0.292593E-006  0.584503E-007
  0.614469E-007  0.189551E-008  0.124722E-007  0.901086E-004  0.672655E-002  0.754515       0.974906       0.994355       0.713181       0.264004     
  0.994953       0.996113       0.349689E-007  0.700342E-008  0.680325E-008  0.173157E-010  0.774046E-010  0.950411E-005  0.111033E-002  0.673156     
  0.961121       0.992815       0.671377       0.188604       0.992880       0.993972       0.166657E-005  0.145225E-005  0.154335E-005  0.124325E-005
  0.110696E-005  0.136224E-003  0.885600E-002  0.784425       0.981165       0.995742       0.769442       0.282255       0.995819       0.996728     
  0.241050E-007  0.772329E-009  0.872826E-009  0.193228E-012  0.198942E-011  0.378697E-006  0.874965E-004  0.586113       0.946333       0.990942     
  0.665394       0.107668       0.988389       0.986405     
 
  0.121390E-005  0.588249E-007  0.474340E-007  0.680850E-007  0.296378E-006  0.234737E-003  0.120207E-001  0.793720       0.977239       0.994465     
  0.794065       0.299886       0.994964       0.995441       0.203595E-006  0.232417E-007  0.218460E-007  0.382936E-009  0.846540E-008  0.607976E-004
  0.426672E-002  0.737632       0.966982       0.993798       0.723716       0.245748       0.993987       0.993766       0.151753E-006  0.584233E-007
  0.614382E-007  0.189447E-008  0.435082E-008  0.544072E-004  0.467611E-002  0.740070       0.973778       0.994191       0.711575       0.243996     
  0.994606       0.995797       0.347654E-007  0.699865E-008  0.680007E-008  0.173039E-010  0.773639E-010  0.486791E-005  0.634371E-003  0.653033     
  0.957517       0.992532       0.669603       0.169723       0.992119       0.992725       0.166567E-005  0.145178E-005  0.154311E-005  0.124280E-005
  0.110679E-005  0.839413E-004  0.629007E-002  0.771211       0.980251       0.995599       0.768514       0.262077       0.995511       0.996416     
  0.240702E-007  0.771430E-009  0.871908E-009  0.193021E-012  0.198746E-011  0.160539E-006  0.414213E-004  0.560193       0.940145       0.990478     
  0.664059       0.927244E-001  0.987137       0.984063     
 
  0.629838E-006  0.587853E-007  0.474228E-007  0.818803E-008  0.796920E-007  0.148804E-003  0.848017E-002  0.779212       0.975258       0.994295     
  0.793224       0.278827       0.994526       0.994816       0.102079E-006  0.232247E-007  0.218379E-007  0.294496E-009  0.107642E-008  0.356878E-004
  0.276046E-002  0.720604       0.963918       0.993576       0.721969       0.225634       0.993376       0.992738       0.115155E-006  0.583994E-007
  0.614289E-007  0.189357E-008  0.435032E-008  0.320116E-004  0.316374E-002  0.724730       0.972461       0.994018       0.710079       0.224563     
  0.994232       0.995433       0.347293E-007  0.699299E-008  0.679578E-008  0.172904E-010  0.773123E-010  0.245578E-005  0.351598E-003  0.632235     
  0.953037       0.992211       0.667940       0.152129       0.991242       0.991142       0.166482E-005  0.145133E-005  0.154284E-005  0.124239E-005
  0.110660E-005  0.504342E-004  0.435371E-002  0.757076       0.979127       0.995447       0.767647       0.242379       0.995175       0.996039     
  0.240278E-007  0.770317E-009  0.870759E-009  0.192770E-012  0.198502E-011  0.662171E-007  0.190907E-004  0.533442       0.932998       0.989946     
  0.662721       0.791622E-001  0.985722       0.981371     
 
  0.327333E-006  0.587455E-007  0.474091E-007  0.200675E-008  0.152951E-007  0.921153E-004  0.579995E-002  0.763701       0.972841       0.994109     
  0.792364       0.258263       0.994026       0.994060       0.672274E-007  0.232070E-007  0.218280E-007  0.294262E-009  0.884638E-009  0.203885E-004
  0.172619E-002  0.702560       0.960318       0.993328       0.720226       0.206208       0.992691       0.991538       0.115092E-006  0.583771E-007
  0.614181E-007  0.189276E-008  0.434969E-008  0.183542E-004  0.208036E-002  0.708493       0.970891       0.993834       0.708661       0.205782     
  0.993821       0.994997       0.346841E-007  0.698581E-008  0.678995E-008  0.172737E-010  0.772468E-010  0.120508E-005  0.188040E-003  0.610402     
  0.947516       0.991832       0.666266       0.135489       0.990218       0.989166       0.166402E-005  0.145088E-005  0.154253E-005  0.124198E-005
  0.110639E-005  0.290305E-004  0.290372E-002  0.741499       0.977749       0.995281       0.766827       0.222636       0.994800       0.995580     
  0.239753E-007  0.768930E-009  0.869310E-009  0.192459E-012  0.198198E-011  0.267577E-007  0.862168E-005  0.505974       0.924768       0.989321     
  0.661375       0.669661E-001  0.984109       0.978260     
 
  0.171743E-006  0.587041E-007  0.473923E-007  0.200535E-008  0.490209E-008  0.556299E-004  0.384003E-002  0.747176       0.969897       0.993902     
  0.791484       0.238261       0.993454       0.993142       0.647041E-007  0.231880E-007  0.218161E-007  0.294022E-009  0.884253E-009  0.113377E-004
  0.104156E-002  0.683511       0.956120       0.993052       0.718495       0.187545       0.991925       0.990145       0.115030E-006  0.583551E-007
  0.614054E-007  0.189198E-008  0.434892E-008  0.102595E-004  0.132832E-002  0.691367       0.969008       0.993637       0.707295       0.187723     
  0.993371       0.994470       0.346285E-007  0.697679E-008  0.678230E-008  0.172530E-010  0.771642E-010  0.575758E-006  0.980024E-004  0.587606     
  0.940961       0.991387       0.664581       0.119867       0.989029       0.986799       0.166326E-005  0.145043E-005  0.154217E-005  0.124159E-005
  0.110617E-005  0.163236E-004  0.189141E-002  0.725005       0.976130       0.995103       0.766092       0.203670       0.994395       0.995049     
  0.239079E-007  0.767134E-009  0.867420E-009  0.192058E-012  0.197805E-011  0.105439E-007  0.373221E-005  0.476801       0.915059       0.988560     
  0.659966       0.557028E-001  0.982218       0.974615     
 
  0.122538E-006  0.586593E-007  0.473711E-007  0.200388E-008  0.490033E-008  0.327472E-004  0.245361E-002  0.729623       0.966300       0.993669     
  0.790581       0.218882       0.992797       0.992011       0.646390E-007  0.231672E-007  0.218017E-007  0.293767E-009  0.883765E-009  0.613852E-005
  0.607890E-003  0.663478       0.951301       0.992745       0.716778       0.169702       0.991073       0.988551       0.114966E-006  0.583320E-007
  0.613900E-007  0.189119E-008  0.434794E-008  0.559516E-005  0.823971E-003  0.673375       0.966762       0.993426       0.705974       0.170449     
  0.992874       0.993825       0.345600E-007  0.696540E-008  0.677235E-008  0.172269E-010  0.770586E-010  0.267992E-006  0.501563E-004  0.563917     
  0.933313       0.990855       0.662879       0.105311       0.987661       0.984038       0.166248E-005  0.144995E-005  0.154176E-005  0.124118E-005
  0.110590E-005  0.915998E-005  0.122366E-002  0.708213       0.974276       0.994914       0.765426       0.186133       0.993963       0.994434     
  0.238241E-007  0.764871E-009  0.865027E-009  0.191552E-012  0.197310E-011  0.481541E-008  0.160164E-005  0.447267       0.903967       0.987651     
  0.658520       0.458695E-001  0.980079       0.970527     
 
  0.122421E-006  0.586091E-007  0.473441E-007  0.200226E-008  0.489792E-008  0.187811E-004  0.151128E-002  0.711040       0.961963       0.993400     
  0.789654       0.200185       0.992042       0.990632       0.645634E-007  0.231433E-007  0.217839E-007  0.293475E-009  0.883122E-009  0.323687E-005
  0.344341E-003  0.642488       0.945742       0.992396       0.715061       0.152736       0.990113       0.986719       0.114894E-006  0.583061E-007
  0.613702E-007  0.189034E-008  0.434670E-008  0.297949E-005  0.497047E-003  0.654541       0.964059       0.993193       0.704697       0.154012     
  0.992317       0.993014       0.344751E-007  0.695103E-008  0.675956E-008  0.171943E-010  0.769243E-010  0.121872E-006  0.252329E-004  0.539425     
  0.924480       0.990214       0.661151       0.918538E-001  0.986091       0.980854       0.166160E-005  0.144937E-005  0.154124E-005  0.124070E-005
  0.110558E-005  0.503606E-005  0.776103E-003  0.690607       0.972084       0.994705       0.764763       0.169408       0.993490       0.993701     
  0.237257E-007  0.762182E-009  0.862177E-009  0.190953E-012  0.196722E-011  0.481496E-008  0.709003E-006  0.418833       0.891942       0.986609     
  0.657068       0.377102E-001  0.977782       0.966187     
 
  0.122284E-006  0.585518E-007  0.473099E-007  0.200043E-008  0.489476E-008  0.104923E-004  0.900050E-003  0.691432       0.956838       0.993092     
  0.788699       0.182223       0.991180       0.988991       0.644730E-007  0.231151E-007  0.217618E-007  0.293133E-009  0.882293E-009  0.166323E-005
  0.190879E-003  0.620582       0.939355       0.991994       0.713335       0.136698       0.989024       0.984608       0.114811E-006  0.582750E-007
  0.613443E-007  0.188936E-008  0.434508E-008  0.155064E-005  0.291697E-003  0.634896       0.960781       0.992934       0.703463       0.138458     
  0.991686       0.991995       0.343700E-007  0.693304E-008  0.674338E-008  0.171537E-010  0.767557E-010  0.548704E-007  0.125038E-004  0.514242     
  0.914436       0.989443       0.659398       0.795147E-001  0.984304       0.977223       0.166060E-005  0.144869E-005  0.154061E-005  0.124016E-005
  0.110518E-005  0.271727E-005  0.482886E-003  0.672235       0.969501       0.994475       0.764098       0.153545       0.992971       0.992839     
  0.236080E-007  0.758932E-009  0.858724E-009  0.190228E-012  0.196011E-011  0.480648E-008  0.313616E-006  0.390485       0.878625       0.985384     
  0.655548       0.307013E-001  0.975243       0.961443     
 
  0.122121E-006  0.584842E-007  0.472662E-007  0.199825E-008  0.489060E-008  0.570984E-005  0.521173E-003  0.670806       0.950800       0.992730     
  0.787704       0.165046       0.990191       0.987048       0.643660E-007  0.230818E-007  0.217346E-007  0.292735E-009  0.881277E-009  0.833049E-006
  0.104002E-003  0.597818       0.932122       0.991530       0.711597       0.121628       0.987800       0.982220       0.114714E-006  0.582369E-007
  0.613108E-007  0.188819E-008  0.434298E-008  0.790455E-006  0.166863E-003  0.614488       0.956863       0.992641       0.702270       0.123823     
  0.990972       0.990741       0.342384E-007  0.691029E-008  0.672276E-008  0.171026E-010  0.765418E-010  0.250630E-007  0.613505E-005  0.488464     
  0.903019       0.988499       0.657608       0.682974E-001  0.982265       0.973111       0.165943E-005  0.144787E-005  0.153983E-005  0.123951E-005
  0.110468E-005  0.143524E-005  0.295132E-003  0.653149       0.966445       0.994219       0.763429       0.138582       0.992399       0.991828     
  0.234646E-007  0.754944E-009  0.854476E-009  0.189336E-012  0.195138E-011  0.477341E-008  0.139203E-006  0.362386       0.863794       0.983913     
  0.653941       0.247495E-001  0.972412       0.956204     
 
  0.121922E-006  0.584018E-007  0.472100E-007  0.199562E-008  0.488521E-008  0.302710E-005  0.295742E-003  0.649176       0.943745       0.992299     
  0.786660       0.148698       0.989047       0.984760       0.642392E-007  0.230421E-007  0.217014E-007  0.292269E-009  0.880046E-009  0.406521E-006
  0.554586E-004  0.574265       0.923933       0.990991       0.709848       0.107556       0.986426       0.979533       0.114597E-006  0.581905E-007
  0.612683E-007  0.188678E-008  0.434033E-008  0.397280E-006  0.937114E-004  0.593376       0.952302       0.992309       0.701111       0.110134     
  0.990171       0.989245       0.340713E-007  0.688115E-008  0.669621E-008  0.170374E-010  0.762669E-010  0.160188E-007  0.297833E-005  0.462190     
  0.889960       0.987322       0.655767       0.581891E-001  0.979924       0.968451       0.165800E-005  0.144685E-005  0.153884E-005  0.123871E-005
  0.110406E-005  0.926448E-006  0.177301E-003  0.633404       0.962804       0.993928       0.762753       0.124549       0.991763       0.990626     
  0.232896E-007  0.750038E-009  0.849241E-009  0.188236E-012  0.194062E-011  0.473637E-008  0.618747E-007  0.334710       0.847273       0.982132     
  0.652228       0.197543E-001  0.969251       0.950454     
 
  0.121679E-006  0.583013E-007  0.471388E-007  0.199241E-008  0.487844E-008  0.156332E-005  0.165140E-003  0.626577       0.935625       0.991784     
  0.785557       0.133223       0.987739       0.982129       0.640879E-007  0.229949E-007  0.216612E-007  0.291717E-009  0.878558E-009  0.194203E-006
  0.288994E-004  0.549998       0.914707       0.990363       0.708091       0.945005E-001  0.984878       0.976481       0.114459E-006  0.581343E-007
  0.612156E-007  0.188510E-008  0.433703E-008  0.200052E-006  0.518771E-004  0.571625       0.947105       0.991932       0.699972       0.974092E-001
  0.989273       0.987510       0.338615E-007  0.684428E-008  0.666248E-008  0.169549E-010  0.759182E-010  0.160174E-007  0.143213E-005  0.435557     
  0.875158       0.985858       0.653861       0.491657E-001  0.977254       0.963227       0.165626E-005  0.144558E-005  0.153760E-005  0.123773E-005
  0.110326E-005  0.925016E-006  0.104838E-003  0.613066       0.958514       0.993594       0.762067       0.111460       0.991054       0.989208     
  0.230800E-007  0.744128E-009  0.842925E-009  0.186908E-012  0.192763E-011  0.469477E-008  0.273748E-007  0.307662       0.829100       0.980007     
  0.650399       0.156122E-001  0.965743       0.944251     
 
  0.121381E-006  0.581767E-007  0.470484E-007  0.198847E-008  0.486989E-008  0.786537E-006  0.903676E-004  0.603049       0.926261       0.991158     
  0.784386       0.118656       0.986240       0.979107       0.639076E-007  0.229386E-007  0.216127E-007  0.291063E-009  0.876777E-009  0.921565E-007
  0.149015E-004  0.525107       0.904490       0.989633       0.706324       0.824714E-001  0.983169       0.973120       0.114295E-006  0.580666E-007
  0.611510E-007  0.188310E-008  0.433299E-008  0.151146E-006  0.283316E-004  0.549309       0.941248       0.991504       0.698840       0.856550E-001
  0.988275       0.985536       0.336020E-007  0.679836E-008  0.662035E-008  0.168522E-010  0.754832E-010  0.159448E-007  0.683499E-006  0.408739     
  0.858610       0.984053       0.651872       0.411947E-001  0.974239       0.957443       0.165417E-005  0.144404E-005  0.153609E-005  0.123654E-005
  0.110230E-005  0.923501E-006  0.611327E-004  0.592231       0.953577       0.993213       0.761371       0.993278E-001  0.990267       0.987585     
  0.228312E-007  0.737079E-009  0.835380E-009  0.185319E-012  0.191209E-011  0.464781E-008  0.121609E-007  0.281416       0.809269       0.977482     
  0.648430       0.122194E-001  0.961872       0.937576     
 
  0.120976E-006  0.580050E-007  0.469207E-007  0.198304E-008  0.485775E-008  0.386955E-006  0.482814E-004  0.578441       0.915073       0.990015     
  0.782601       0.104999       0.984227       0.975309       0.636802E-007  0.228672E-007  0.215502E-007  0.290233E-009  0.874479E-009  0.433388E-007
  0.759404E-005  0.499571       0.892890       0.988498       0.704120       0.714564E-001  0.981036       0.969197       0.114074E-006  0.579719E-007
  0.610586E-007  0.188030E-008  0.432710E-008  0.151100E-006  0.152752E-004  0.526359       0.934320       0.990675       0.697282       0.748539E-001
  0.986909       0.983053       0.332763E-007  0.674029E-008  0.656689E-008  0.167222E-010  0.749305E-010  0.157691E-007  0.324850E-006  0.381829     
  0.839957       0.981535       0.649353       0.342248E-001  0.970598       0.950844       0.165145E-005  0.144199E-005  0.153404E-005  0.123495E-005
  0.110097E-005  0.921740E-006  0.352298E-004  0.570916       0.947778       0.992556       0.760352       0.881440E-001  0.989228       0.985594     
  0.225319E-007  0.728541E-009  0.826224E-009  0.183388E-012  0.189319E-011  0.459369E-008  0.549446E-008  0.256055       0.787377       0.974158     
  0.645833       0.947183E-002  0.957359       0.930137     
 
  0.120456E-006  0.577837E-007  0.467541E-007  0.197605E-008  0.484196E-008  0.187446E-006  0.255146E-004  0.552905       0.902203       0.988470     
  0.780417       0.922918E-001  0.981815       0.970879       0.634000E-007  0.227785E-007  0.214722E-007  0.289208E-009  0.871607E-009  0.376500E-007
  0.382431E-005  0.473555       0.879837       0.987028       0.701626       0.614550E-001  0.978542       0.964761       0.113800E-006  0.578518E-007
  0.609401E-007  0.187676E-008  0.431950E-008  0.150775E-006  0.813924E-005  0.502938       0.926401       0.989575       0.695486       0.650059E-001
  0.985277       0.980146       0.328761E-007  0.666851E-008  0.650069E-008  0.165612E-010  0.742454E-010  0.155744E-007  0.153503E-006  0.355060     
  0.819292       0.978332       0.646439       0.282012E-001  0.966411       0.943580       0.164814E-005  0.143945E-005  0.153150E-005  0.123298E-005
  0.109932E-005  0.919741E-006  0.201157E-004  0.549314       0.941255       0.991709       0.759147       0.779105E-001  0.988012       0.983307     
  0.221795E-007  0.718437E-009  0.815375E-009  0.181099E-012  0.187077E-011  0.453236E-008  0.256204E-008  0.231780       0.763580       0.970106     
  0.642773       0.727473E-002  0.952344       0.922105     
 
  0.119809E-006  0.575073E-007  0.465446E-007  0.196736E-008  0.482213E-008  0.955047E-007  0.133001E-004  0.526576       0.887653       0.986588     
  0.777973       0.805552E-001  0.979050       0.965877       0.630634E-007  0.226716E-007  0.213777E-007  0.287977E-009  0.868137E-009  0.376347E-007
  0.190189E-005  0.447228       0.865369       0.985294       0.698981       0.524517E-001  0.975749       0.959866       0.113473E-006  0.577074E-007
  0.607968E-007  0.187250E-008  0.431030E-008  0.150233E-006  0.429199E-005  0.479194       0.917543       0.988290       0.693584       0.560945E-001
  0.983439       0.976879       0.323983E-007  0.658245E-008  0.642119E-008  0.163681E-010  0.734223E-010  0.153596E-007  0.718714E-007  0.328658     
  0.796788       0.974499       0.643264       0.230501E-001  0.961769       0.935814       0.164428E-005  0.143647E-005  0.152851E-005  0.123068E-005
  0.109738E-005  0.917571E-006  0.114083E-004  0.527593       0.934138       0.990736       0.757855       0.686087E-001  0.986674       0.980779     
  0.217749E-007  0.706788E-009  0.802848E-009  0.178456E-012  0.184484E-011  0.446428E-008  0.122746E-008  0.208777       0.738196       0.965414     
  0.639408       0.553986E-002  0.946954       0.913665     
 
  0.118999E-006  0.571602E-007  0.462803E-007  0.195648E-008  0.479713E-008  0.954425E-007  0.682552E-005  0.499517       0.871142       0.984309     
  0.775250       0.697924E-001  0.975886       0.960233       0.626429E-007  0.225371E-007  0.212581E-007  0.286426E-009  0.863734E-009  0.373250E-007
  0.934594E-006  0.420589       0.849132       0.982980       0.695965       0.444074E-001  0.972484       0.954313       0.113090E-006  0.575369E-007
  0.606272E-007  0.186749E-008  0.429939E-008  0.149654E-006  0.223989E-005  0.455246       0.907753       0.986826       0.691588       0.480903E-001
  0.981393       0.973286       0.318282E-007  0.647920E-008  0.632558E-008  0.161356E-010  0.724298E-010  0.151156E-007  0.335669E-007  0.302691     
  0.772238       0.969688       0.639607       0.186839E-001  0.956525       0.927397       0.163988E-005  0.143306E-005  0.152507E-005  0.122803E-005
  0.109514E-005  0.915288E-006  0.644437E-005  0.505884       0.926473       0.989649       0.756486       0.602051E-001  0.985221       0.978046     
  0.213094E-007  0.693316E-009  0.788332E-009  0.175388E-012  0.181470E-011  0.438752E-008  0.551691E-009  0.187104       0.711117       0.959735     
  0.635517       0.418562E-002  0.941034       0.904673     
 
  0.117987E-006  0.567254E-007  0.459481E-007  0.194290E-008  0.476576E-008  0.952778E-007  0.343830E-005  0.471800       0.852475       0.981530     
  0.772188       0.599960E-001  0.972258       0.953881       0.621183E-007  0.223688E-007  0.211081E-007  0.284485E-009  0.858208E-009  0.369039E-007
  0.454299E-006  0.393796       0.830863       0.980165       0.692665       0.372850E-001  0.968762       0.948071       0.112641E-006  0.573356E-007
  0.604264E-007  0.186157E-008  0.428646E-008  0.149016E-006  0.115718E-005  0.431197       0.896955       0.985146       0.689472       0.409543E-001
  0.979109       0.969347       0.311625E-007  0.635816E-008  0.621335E-008  0.158625E-010  0.712633E-010  0.148399E-007  0.157986E-007  0.277375     
  0.745800       0.964012       0.635558       0.150215E-001  0.950790       0.918408       0.163494E-005  0.142920E-005  0.152118E-005  0.122505E-005
  0.109261E-005  0.912836E-006  0.363581E-005  0.484319       0.918322       0.988436       0.755026       0.526605E-001  0.983651       0.975148     
  0.207844E-007  0.678058E-009  0.771867E-009  0.171905E-012  0.178043E-011  0.430195E-008  0.241006E-009  0.166901       0.682619       0.953237     
  0.631224       0.314114E-002  0.934695       0.895217     
 
  0.116746E-006  0.561915E-007  0.455391E-007  0.192626E-008  0.472721E-008  0.938579E-007  0.170078E-005  0.443558       0.831668       0.978184     
  0.768739       0.511510E-001  0.968145       0.946836       0.614514E-007  0.221544E-007  0.209165E-007  0.282009E-009  0.851143E-009  0.364362E-007
  0.217255E-006  0.366918       0.810098       0.976723       0.689041       0.310343E-001  0.964490       0.941072       0.112106E-006  0.570947E-007
  0.601857E-007  0.185449E-008  0.427095E-008  0.148300E-006  0.593356E-006  0.407137       0.884984       0.983209       0.687192       0.346403E-001
  0.976547       0.964980       0.303965E-007  0.621836E-008  0.608353E-008  0.155464E-010  0.699122E-010  0.145322E-007  0.756108E-008  0.252867     
  0.717571       0.957423       0.631113       0.119807E-001  0.944606       0.908915       0.162947E-005  0.142493E-005  0.151687E-005  0.122174E-005
  0.108980E-005  0.910184E-006  0.205470E-005  0.463050       0.909784       0.987099       0.753471       0.459322E-001  0.981971       0.972112     
  0.201999E-007  0.661011E-009  0.753442E-009  0.168001E-012  0.174199E-011  0.420780E-008  0.160461E-009  0.148242       0.652996       0.945912     
  0.626547       0.234447E-002  0.927985       0.885355     
 
  0.115266E-006  0.555535E-007  0.450494E-007  0.190637E-008  0.468105E-008  0.923686E-007  0.827041E-006  0.414968       0.808916       0.974225     
  0.764884       0.432316E-001  0.963556       0.939216       0.606146E-007  0.218846E-007  0.206750E-007  0.278892E-009  0.842227E-009  0.359074E-007
  0.102170E-006  0.340065       0.786624       0.972495       0.684998       0.255989E-001  0.959592       0.933278       0.111460E-006  0.568025E-007
  0.598933E-007  0.184589E-008  0.425209E-008  0.147492E-006  0.302996E-006  0.383146       0.871662       0.980954       0.684713       0.290964E-001
  0.973676       0.960116       0.295298E-007  0.605954E-008  0.593584E-008  0.151866E-010  0.683720E-010  0.141939E-007  0.370551E-008  0.229316     
  0.687777       0.949838       0.626211       0.948085E-002  0.937972       0.898974       0.162342E-005  0.142018E-005  0.151207E-005  0.121807E-005
  0.108667E-005  0.907308E-006  0.115154E-005  0.441829       0.900814       0.985626       0.751810       0.398656E-001  0.980168       0.968892     
  0.195223E-007  0.641163E-009  0.731955E-009  0.163442E-012  0.169705E-011  0.410035E-008  0.156650E-009  0.130129       0.620766       0.937301     
  0.621229       0.170928E-002  0.920542       0.874575     
 
  0.113545E-006  0.548097E-007  0.444774E-007  0.188318E-008  0.462710E-008  0.908195E-007  0.393679E-006  0.386226       0.784358       0.969594     
  0.760557       0.362000E-001  0.958470       0.931137       0.595787E-007  0.215496E-007  0.203746E-007  0.275015E-009  0.831123E-009  0.352930E-007
  0.476177E-007  0.313361       0.760349       0.967316       0.680453       0.209182E-001  0.954028       0.924635       0.110686E-006  0.564505E-007
  0.595409E-007  0.183553E-008  0.422935E-008  0.146580E-006  0.154825E-006  0.359327       0.856903       0.978307       0.681970       0.242668E-001
  0.970463       0.954742       0.285608E-007  0.588120E-008  0.576970E-008  0.147815E-010  0.666353E-010  0.138235E-007  0.178047E-008  0.206842     
  0.656590       0.941164       0.620802       0.744621E-002  0.930873       0.888590       0.161650E-005  0.141473E-005  0.150657E-005  0.121386E-005
  0.108308E-005  0.904214E-006  0.622419E-006  0.419928       0.891070       0.983958       0.749986       0.342325E-001  0.978170       0.965363     
  0.187457E-007  0.618311E-009  0.707165E-009  0.158172E-012  0.164503E-011  0.397696E-008  0.152277E-009  0.113021       0.586140       0.927211     
  0.615207       0.122331E-002  0.912426       0.862934     
 
  0.111581E-006  0.539590E-007  0.438223E-007  0.185663E-008  0.456525E-008  0.891813E-007  0.183657E-006  0.357537       0.758018       0.964288     
  0.755767       0.300209E-001  0.952902       0.922602       0.583015E-007  0.211354E-007  0.200026E-007  0.270213E-009  0.817356E-009  0.345756E-007
  0.221121E-007  0.286919       0.731056       0.960998       0.675329       0.169274E-001  0.947766       0.915086       0.109779E-006  0.560367E-007
  0.591262E-007  0.182335E-008  0.420260E-008  0.145555E-006  0.792545E-007  0.335832       0.840805       0.975274       0.678972       0.200961E-001
  0.966924       0.948927       0.274345E-007  0.567297E-008  0.557536E-008  0.143070E-010  0.645980E-010  0.133970E-007  0.761316E-009  0.184659     
  0.622622       0.930908       0.614656       0.574531E-002  0.923013       0.877291       0.160904E-005  0.140886E-005  0.150063E-005  0.120930E-005
  0.107920E-005  0.900942E-006  0.613635E-006  0.398833       0.881115       0.982157       0.748063       0.293693E-001  0.976078       0.961743     
  0.179601E-007  0.595070E-009  0.681899E-009  0.152791E-012  0.159181E-011  0.385177E-008  0.147828E-009  0.984969E-001  0.553157       0.916619     
  0.608965       0.888276E-003  0.904416       0.851686     
 
  0.109264E-006  0.529528E-007  0.430462E-007  0.182516E-008  0.449187E-008  0.873315E-007  0.844943E-007  0.328928       0.729263       0.958019     
  0.750355       0.246465E-001  0.946710       0.913320       0.567443E-007  0.206287E-007  0.195469E-007  0.264330E-009  0.800457E-009  0.337475E-007
  0.103540E-007  0.260864       0.698676       0.953304       0.669504       0.135599E-001  0.940763       0.904633       0.108732E-006  0.555580E-007
  0.586461E-007  0.180925E-008  0.417159E-008  0.144403E-006  0.398488E-007  0.312818       0.823489       0.971811       0.675687       0.165277E-001
  0.963051       0.942693       0.261318E-007  0.543087E-008  0.534890E-008  0.137531E-010  0.622156E-010  0.129063E-007  0.477457E-009  0.163120     
  0.585963       0.918748       0.607639       0.436237E-002  0.914354       0.865033       0.160144E-005  0.140286E-005  0.149455E-005  0.120464E-005
  0.107522E-005  0.897615E-006  0.611568E-006  0.379253       0.871423       0.980263       0.746053       0.253125E-001  0.973953       0.958131     
  0.171663E-007  0.571463E-009  0.656177E-009  0.147302E-012  0.153742E-011  0.372446E-008  0.143276E-009  0.858791E-001  0.521279       0.905484     
  0.602445       0.648984E-003  0.896381       0.840620     
 
  0.106197E-006  0.516172E-007  0.420142E-007  0.178330E-008  0.439411E-008  0.850405E-007  0.382052E-007  0.299932       0.695481       0.949857     
  0.743839       0.200000E-001  0.939459       0.902592       0.548819E-007  0.200204E-007  0.189987E-007  0.257252E-009  0.780084E-009  0.328029E-007
  0.480118E-008  0.235366       0.663397       0.944041       0.662893       0.107490E-001  0.933000       0.893329       0.107546E-006  0.550136E-007
  0.580996E-007  0.179320E-008  0.413624E-008  0.143118E-006  0.194400E-007  0.290446       0.805138       0.967886       0.672076       0.135032E-001
  0.958836       0.936031       0.247612E-007  0.517459E-008  0.510857E-008  0.131638E-010  0.596762E-010  0.123935E-007  0.451887E-009  0.143741     
  0.549645       0.905433       0.600096       0.331916E-002  0.905446       0.852679       0.159346E-005  0.139656E-005  0.148816E-005  0.119974E-005
  0.107103E-005  0.894153E-006  0.609428E-006  0.360434       0.861654       0.978227       0.743900       0.217993E-001  0.971734       0.954431     
  0.163715E-007  0.547699E-009  0.630225E-009  0.141753E-012  0.148232E-011  0.359607E-008  0.138651E-009  0.748612E-001  0.490589       0.893865     
  0.595659       0.475956E-003  0.888292       0.829667     
 
  0.102037E-006  0.497979E-007  0.406054E-007  0.172615E-008  0.426031E-008  0.821391E-007  0.172187E-007  0.270515       0.655426       0.938918     
  0.735813       0.160454E-001  0.930901       0.890166       0.526708E-007  0.192949E-007  0.183437E-007  0.248790E-009  0.755669E-009  0.317155E-007
  0.208859E-008  0.210552       0.625142       0.932911       0.655351       0.842927E-002  0.924412       0.881095       0.106197E-006  0.543936E-007
  0.574766E-007  0.177489E-008  0.409592E-008  0.141700E-006  0.108068E-007  0.268534       0.785668       0.963463       0.668126       0.109285E-001
  0.954256       0.928895       0.233197E-007  0.490333E-008  0.485349E-008  0.125369E-010  0.569681E-010  0.118500E-007  0.433290E-009  0.126103     
  0.513272       0.890815       0.591932       0.251966E-002  0.896221       0.840039       0.158519E-005  0.139000E-005  0.148151E-005  0.119463E-005
  0.106667E-005  0.890579E-006  0.607205E-006  0.342467       0.851886       0.976066       0.741619       0.187746E-001  0.969440       0.950670     
  0.155574E-007  0.523222E-009  0.603433E-009  0.136013E-012  0.142520E-011  0.346352E-008  0.133841E-009  0.649497E-001  0.460271       0.881494     
  0.588465       0.346722E-003  0.879937       0.818512     
 
  0.967570E-007  0.474760E-007  0.388029E-007  0.165295E-008  0.408845E-008  0.786260E-007  0.749795E-008  0.241145       0.610155       0.924852     
  0.726080       0.127330E-001  0.921088       0.876283       0.500312E-007  0.184243E-007  0.175558E-007  0.238592E-009  0.726181E-009  0.304373E-007
  0.992209E-009  0.186467       0.583509       0.919356       0.646611       0.653651E-002  0.914839       0.867694       0.104633E-006  0.536731E-007
  0.567521E-007  0.175358E-008  0.404897E-008  0.140095E-006  0.106871E-007  0.246554       0.764491       0.958391       0.663741       0.869911E-002
  0.949172       0.921115       0.218154E-007  0.461824E-008  0.458462E-008  0.118744E-010  0.540988E-010  0.112767E-007  0.413588E-009  0.109971     
  0.476960       0.874802       0.583070       0.190193E-002  0.886609       0.827086       0.157665E-005  0.138321E-005  0.147461E-005  0.118933E-005
  0.106214E-005  0.886886E-006  0.604879E-006  0.325421       0.842146       0.973766       0.739196       0.161855E-001  0.967071       0.946853     
  0.145844E-007  0.493763E-009  0.571107E-009  0.129072E-012  0.135598E-011  0.330367E-008  0.128007E-009  0.547133E-001  0.425575       0.866319     
  0.579924       0.237880E-003  0.870161       0.805570     
 
  0.900987E-007  0.445280E-007  0.365071E-007  0.155954E-008  0.386843E-008  0.742993E-007  0.292851E-008  0.211820       0.559234       0.906665     
  0.714152       0.998212E-002  0.909850       0.860704       0.469249E-007  0.173932E-007  0.166199E-007  0.226454E-009  0.690988E-009  0.289510E-007
  0.688695E-009  0.163250       0.538711       0.902922       0.636437       0.501041E-002  0.904200       0.853031       0.102911E-006  0.528777E-007
  0.559514E-007  0.173000E-008  0.399702E-008  0.138337E-006  0.105572E-007  0.225741       0.742665       0.952780       0.658998       0.689026E-002
  0.943786       0.912971       0.202772E-007  0.432455E-008  0.430675E-008  0.111877E-010  0.511164E-010  0.106825E-007  0.393055E-009  0.953760E-001
  0.441152       0.857513       0.573529       0.142877E-002  0.876650       0.813902       0.156672E-005  0.137532E-005  0.146660E-005  0.118316E-005
  0.105688E-005  0.882597E-006  0.602156E-006  0.306902       0.831126       0.971173       0.736523       0.136574E-001  0.964409       0.942538     
  0.136668E-007  0.465759E-009  0.540262E-009  0.122425E-012  0.128951E-011  0.315058E-008  0.122382E-009  0.464379E-001  0.394257       0.851100     
  0.571289       0.167042E-003  0.860769       0.793372     
 
  0.816265E-007  0.407424E-007  0.335467E-007  0.143870E-008  0.358263E-008  0.688235E-007  0.137196E-008  0.182425       0.501736       0.882470     
  0.699046       0.772787E-002  0.896786       0.842886       0.433708E-007  0.162044E-007  0.155372E-007  0.212371E-009  0.650032E-009  0.272582E-007
  0.652183E-009  0.141124       0.491391       0.883308       0.624696       0.379531E-002  0.892514       0.837158       0.101083E-006  0.520310E-007
  0.550980E-007  0.170484E-008  0.394153E-008  0.136476E-006  0.104204E-007  0.206594       0.720856       0.946684       0.653881       0.546466E-002
  0.938172       0.904690       0.187343E-007  0.402758E-008  0.402480E-008  0.104887E-010  0.480713E-010  0.100769E-007  0.371990E-009  0.823140E-001
  0.406304       0.839109       0.563378       0.106926E-002  0.866397       0.800554       0.155612E-005  0.136691E-005  0.145805E-005  0.117658E-005
  0.105125E-005  0.878071E-006  0.599254E-006  0.288563       0.819888       0.968370       0.733642       0.114260E-001  0.961570       0.938040     
  0.129257E-007  0.442989E-009  0.515094E-009  0.116987E-012  0.123494E-011  0.302474E-008  0.117731E-009  0.405667E-001  0.369483       0.837765     
  0.563410       0.125395E-003  0.852658       0.783111     
 
  0.714569E-007  0.361428E-007  0.299303E-007  0.129040E-008  0.323014E-008  0.622290E-007  0.123054E-008  0.153460       0.439440       0.851255     
  0.680203       0.590515E-002  0.881934       0.822991       0.394050E-007  0.148656E-007  0.143131E-007  0.196393E-009  0.603396E-009  0.253514E-007
  0.610428E-009  0.120292       0.442237       0.860183       0.611219       0.284034E-002  0.879774       0.820117       0.991101E-007  0.511144E-007
  0.541732E-007  0.167755E-008  0.388128E-008  0.134467E-006  0.102723E-007  0.188460       0.698469       0.939994       0.648315       0.430664E-002
  0.932218       0.896081       0.171263E-007  0.371536E-008  0.372727E-008  0.974870E-011  0.448365E-010  0.943460E-008  0.349483E-009  0.701329E-001
  0.371029       0.818770       0.552244       0.784991E-003  0.855427       0.786456       0.154681E-005  0.135946E-005  0.145046E-005  0.117074E-005
  0.104624E-005  0.874040E-006  0.596644E-006  0.273869       0.810332       0.965621       0.730729       0.982442E-002  0.958912       0.934081     
  0.120701E-007  0.416557E-009  0.485799E-009  0.110642E-012  0.117112E-011  0.287746E-008  0.112269E-009  0.344967E-001  0.341485       0.821968     
  0.554321       0.891653E-004  0.843261       0.771238     
 
  0.600317E-007  0.308937E-007  0.257748E-007  0.111896E-008  0.282004E-008  0.546249E-007  0.109093E-008  0.125594       0.374362       0.812353     
  0.657185       0.445085E-002  0.865262       0.801029       0.351137E-007  0.134011E-007  0.129676E-007  0.178757E-009  0.551698E-009  0.232558E-007
  0.563787E-009  0.100981       0.392441       0.833335       0.595854       0.209987E-002  0.866008       0.802081       0.969973E-007  0.501300E-007
  0.531786E-007  0.164818E-008  0.381635E-008  0.132310E-006  0.101128E-007  0.171372       0.675593       0.932692       0.642287       0.337339E-002
  0.925917       0.887139       0.153533E-007  0.336742E-008  0.339430E-008  0.891723E-011  0.411881E-010  0.871070E-008  0.323967E-009  0.582964E-001
  0.333370       0.794890       0.539409       0.554535E-003  0.843147       0.770851       0.153779E-005  0.135222E-005  0.144306E-005  0.116503E-005
  0.104134E-005  0.870097E-006  0.594065E-006  0.260693       0.801367       0.962782       0.727678       0.852141E-002  0.956246       0.930256     
  0.110934E-007  0.386175E-009  0.452031E-009  0.103313E-012  0.109715E-011  0.270682E-008  0.105915E-009  0.285058E-001  0.310729       0.803241     
  0.543839       0.601039E-004  0.832623       0.757850     
 
  0.485040E-007  0.254943E-007  0.214645E-007  0.939772E-009  0.238813E-008  0.466384E-007  0.941644E-009  0.100079       0.311247       0.767364     
  0.630641       0.330646E-002  0.847282       0.777908       0.306151E-007  0.118459E-007  0.115308E-007  0.159828E-009  0.495929E-009  0.210062E-007
  0.512910E-009  0.833788E-001  0.342930       0.802653       0.578526       0.153343E-002  0.851220       0.783076       0.947519E-007  0.490808E-007
  0.521171E-007  0.161679E-008  0.374690E-008  0.130013E-006  0.994269E-008  0.155358       0.652377       0.924787       0.635803       0.262714E-002
  0.919276       0.877899       0.136817E-007  0.303550E-008  0.307495E-008  0.811576E-011  0.376552E-010  0.800880E-008  0.299061E-009  0.485548E-001
  0.299009       0.770289       0.526118       0.397851E-003  0.831011       0.755704       0.152731E-005  0.134379E-005  0.143445E-005  0.115839E-005
  0.103564E-005  0.865538E-006  0.591057E-006  0.245780       0.791189       0.959601       0.724329       0.718222E-002  0.953239       0.925938     
  0.104553E-007  0.366135E-009  0.429685E-009  0.984432E-013  0.104784E-011  0.259270E-008  0.101648E-009  0.250527E-001  0.291006       0.789445     
  0.535432       0.462450E-004  0.824697       0.748241     
 
  0.379037E-007  0.204157E-007  0.173703E-007  0.768026E-009  0.197046E-008  0.388901E-007  0.794395E-009  0.778434E-001  0.253387       0.718472     
  0.601432       0.241893E-002  0.828294       0.754037       0.260672E-007  0.102497E-007  0.100463E-007  0.140155E-009  0.437622E-009  0.186588E-007
  0.458991E-009  0.676381E-001  0.294922       0.768188       0.559155       0.110577E-002  0.835407       0.763126       0.923740E-007  0.479658E-007
  0.509876E-007  0.158335E-008  0.367282E-008  0.127573E-006  0.976163E-008  0.140413       0.628809       0.916176       0.628742       0.203479E-002
  0.912223       0.868314       0.121701E-007  0.273178E-008  0.278118E-008  0.737497E-011  0.343736E-010  0.735422E-008  0.275694E-009  0.407254E-001
  0.268401       0.745784       0.512659       0.292057E-003  0.819176       0.741192       0.151616E-005  0.133483E-005  0.142527E-005  0.115130E-005
  0.102954E-005  0.860675E-006  0.587831E-006  0.230743       0.780767       0.956154       0.720704       0.597419E-002  0.950016       0.921434     
  0.963788E-008  0.340310E-009  0.400821E-009  0.921371E-013  0.983857E-012  0.244442E-008  0.960936E-010  0.210099E-001  0.266211       0.771622     
  0.525085       0.323739E-004  0.814679       0.735957     
 
  0.286377E-007  0.158598E-007  0.136565E-007  0.610611E-009  0.158374E-008  0.316650E-007  0.654780E-009  0.590757E-001  0.201976       0.666739     
  0.570039       0.174167E-002  0.808446       0.729558       0.215669E-007  0.864117E-008  0.853909E-008  0.120040E-009  0.377592E-009  0.162401E-007
  0.402690E-009  0.536799E-001  0.248901       0.729630       0.537571       0.784188E-003  0.818577       0.742247       0.898725E-007  0.467884E-007
  0.497930E-007  0.154794E-008  0.359427E-008  0.124988E-006  0.956964E-008  0.126536       0.604913       0.906900       0.621167       0.156813E-002
  0.904798       0.858430       0.107492E-007  0.244284E-008  0.250025E-008  0.666316E-011  0.312051E-010  0.671925E-008  0.252916E-009  0.340524E-001
  0.239902       0.720536       0.498678       0.214948E-003  0.807162       0.726640       0.150727E-005  0.132759E-005  0.141784E-005  0.114553E-005
  0.102456E-005  0.856668E-006  0.585170E-006  0.220248       0.772774       0.952899       0.717115       0.522135E-002  0.947138       0.917690     
  0.882282E-008  0.314363E-009  0.371701E-009  0.857529E-013  0.918904E-012  0.229364E-008  0.904342E-010  0.174777E-001  0.242301       0.752803     
  0.514195       0.224293E-004  0.804400       0.723457     
 
  0.208540E-007  0.119176E-007  0.104019E-007  0.471033E-009  0.123685E-008  0.251215E-007  0.526234E-009  0.436544E-001  0.157430       0.612693     
  0.536536       0.123334E-002  0.787831       0.704594       0.171542E-007  0.703104E-008  0.701630E-008  0.995396E-010  0.315912E-009  0.137431E-007
  0.343801E-009  0.413081E-001  0.204735       0.685848       0.513109       0.542214E-003  0.800336       0.719948       0.869543E-007  0.454111E-007
  0.483929E-007  0.150639E-008  0.350204E-008  0.121960E-006  0.934378E-008  0.112388       0.578195       0.896142       0.612622       0.116858E-002
  0.896425       0.847393       0.920031E-008  0.212355E-008  0.218805E-008  0.586791E-011  0.276468E-010  0.600250E-008  0.227085E-009  0.274672E-001
  0.209193       0.690524       0.482358       0.150205E-003  0.793359       0.709969       0.149730E-005  0.131947E-005  0.140949E-005  0.113905E-005
  0.101896E-005  0.852170E-006  0.582189E-006  0.208795       0.763902       0.949300       0.713186       0.447142E-002  0.943942       0.913533     
  0.829374E-008  0.297349E-009  0.352527E-009  0.815336E-013  0.875785E-012  0.219302E-008  0.866425E-010  0.154016E-001  0.226831       0.738832     
  0.505286       0.174858E-004  0.796434       0.714139     
 
  0.144828E-007  0.858126E-008  0.760728E-008  0.349535E-009  0.930917E-009  0.192718E-007  0.409347E-009  0.312273E-001  0.119296       0.556078     
  0.500704       0.858284E-003  0.766336       0.678968       0.131381E-007  0.552985E-008  0.558151E-008  0.800340E-010  0.256646E-009  0.113211E-007
  0.285932E-009  0.310129E-001  0.164477       0.638312       0.486420       0.370738E-003  0.781138       0.696814       0.837895E-007  0.439136E-007
  0.468678E-007  0.146106E-008  0.340119E-008  0.118653E-006  0.909707E-008  0.991692E-001  0.550611       0.884313       0.603374       0.859985E-003
  0.887494       0.835847       0.763851E-008  0.179622E-008  0.186569E-008  0.504125E-011  0.239239E-010  0.524762E-008  0.199728E-009  0.215208E-001
  0.178518       0.656628       0.464104       0.101432E-003  0.778308       0.691906       0.148598E-005  0.131029E-005  0.140003E-005  0.113172E-005
  0.101264E-005  0.847092E-006  0.578835E-006  0.195899       0.753982       0.945352       0.708940       0.370962E-002  0.940387       0.908916     
  0.752511E-008  0.272475E-009  0.324433E-009  0.753369E-013  0.812316E-012  0.204493E-008  0.810568E-010  0.126584E-001  0.205030       0.718928     
  0.493664       0.118970E-004  0.785693       0.701252     
 
  0.946087E-008  0.584803E-008  0.527939E-008  0.246742E-009  0.668104E-009  0.141540E-007  0.305252E-009  0.214570E-001  0.871206E-001  0.496701     
  0.462205       0.586411E-003  0.743571       0.652214       0.973211E-008  0.422038E-008  0.431497E-008  0.626235E-010  0.203168E-009  0.910907E-008
  0.232472E-009  0.228317E-001  0.129740       0.588792       0.458207       0.252473E-003  0.761449       0.673444       0.807738E-007  0.424773E-007
  0.454035E-007  0.141742E-008  0.330397E-008  0.115459E-006  0.885913E-008  0.882112E-001  0.525247       0.872312       0.593809       0.647973E-003
  0.878610       0.824702       0.648008E-008  0.154894E-008  0.162030E-008  0.440719E-011  0.210482E-010  0.465930E-008  0.178285E-009  0.174893E-001
  0.155614       0.627340       0.447603       0.734348E-004  0.765062       0.676402       0.147727E-005  0.130308E-005  0.139257E-005  0.112592E-005
  0.100757E-005  0.842994E-006  0.576099E-006  0.187898       0.746715       0.941611       0.704719       0.329148E-002  0.937251       0.905165     
  0.708490E-008  0.258075E-009  0.308086E-009  0.717166E-013  0.775064E-012  0.195742E-008  0.777415E-010  0.112420E-001  0.192564       0.705504     
  0.484789       0.946101E-005  0.778007       0.692481     
 
  0.576541E-008  0.374401E-008  0.345228E-008  0.164586E-009  0.454319E-009  0.989544E-008  0.217112E-009  0.140843E-001  0.610793E-001  0.435745     
  0.421479       0.392220E-003  0.719671       0.624486       0.694249E-008  0.311374E-008  0.322989E-008  0.475181E-010  0.156191E-009  0.713593E-008
  0.184221E-009  0.163817E-001  0.100119       0.537664       0.428464       0.169455E-003  0.740975       0.649488       0.777105E-007  0.410138E-007
  0.439074E-007  0.137279E-008  0.320438E-008  0.112184E-006  0.861539E-008  0.782751E-001  0.500277       0.859660       0.583684       0.486416E-003
  0.869360       0.813311       0.550419E-008  0.133714E-008  0.140858E-008  0.385648E-011  0.185344E-010  0.414045E-008  0.159271E-009  0.142827E-001
  0.135983       0.599183       0.431267       0.538145E-004  0.751976       0.661322       0.146605E-005  0.129383E-005  0.138303E-005  0.111850E-005
  0.100111E-005  0.837793E-006  0.572633E-006  0.177073       0.737340       0.937307       0.700055       0.276964E-002  0.933528       0.900576     
  0.642720E-008  0.236455E-009  0.283479E-009  0.662547E-013  0.718791E-012  0.182510E-008  0.727264E-010  0.928645E-002  0.174424       0.686091     
  0.473119       0.653281E-005  0.767488       0.680111     
 
 )
